Optical Power Monitor 3.1.3778.562

Power Meter,PM100USB
Power Meter SN,1908005
Sensor,S130VC
Sensor SN,200710110
Sensor Type,Photodiode
Wavelength,640 nm
Range,Auto

Start of Measurement,10/27/2021 12:02:51
Elapsed Time,00:00:29:998
Samples,7961

--Statistics--
Minimum [W],3.882E-06
Maximum [W],0.0052695
Mean [W],0.0025103
Standard Deviation [W],0.0025598
Ratio,1357.419 : 1

--Graph Data--
Time (ms),Power (W)
5.442,0.0052608
8.465,0.0052643
11.769,0.0052664
14.736,0.0052685
17.703,0.0052693
20.746,0.0052695
23.761,0.0052689
26.707,0.0052691
30.055,0.0052681
33.085,0.0052677
36.062,0.0052679
39.073,0.0052667
42.086,0.0052664
45.084,0.0052648
48.084,0.0052631
51.057,0.005261
54.067,0.0052607
57.085,0.0052598
60.399,0.0052594
63.745,0.0052589
66.758,0.0052578
69.768,0.0052571
73.457,0.005256
76.438,0.005255
79.391,0.0052545
83.044,0.0052533
86.236,0.0052527
89.439,0.005251
92.407,0.00525
95.427,0.0052494
98.399,0.0052485
101.436,0.0052508
104.431,0.0045328
107.434,0.0036377
110.427,0.0029623
113.475,0.0024345
116.553,0.0020121
120.007,0.0016355
123.121,0.0013338
126.490,0.0010899
129.798,0.00089162
133.136,0.00073003
136.475,0.00059801
140.143,0.00047937
143.447,0.0003925
146.793,0.00032121
150.080,0.00026306
153.123,0.00022048
156.444,0.00018147
159.433,0.00015251
162.431,0.00012846
165.454,0.00010834
168.429,9.2144E-05
171.427,7.8279E-05
174.739,6.5887E-05
177.744,5.6685E-05
180.752,4.8587E-05
183.756,4.2329E-05
186.683,3.7054E-05
189.770,3.2268E-05
192.740,2.8833E-05
195.744,2.5275E-05
198.749,2.2944E-05
201.743,2.0858E-05
204.750,1.8895E-05
207.747,1.7177E-05
210.738,1.595E-05
213.776,1.4846E-05
216.767,1.3987E-05
219.739,1.2883E-05
222.768,1.2637E-05
225.766,1.1165E-05
228.783,1.1042E-05
231.771,1.0552E-05
235.194,9.938E-06
238.393,9.57E-06
241.743,9.2018E-06
245.093,8.9564E-06
248.091,8.5884E-06
251.032,8.711E-06
254.068,8.5884E-06
257.090,8.0976E-06
260.069,7.8522E-06
263.065,7.4842E-06
266.064,7.7295E-06
269.060,7.2388E-06
272.064,7.116E-06
275.406,7.4842E-06
278.748,7.116E-06
281.744,6.9934E-06
284.748,6.8706E-06
287.746,6.748E-06
290.733,6.748E-06
293.744,6.3799E-06
296.720,6.3799E-06
299.717,6.5026E-06
302.723,6.3799E-06
305.738,6.3799E-06
308.691,6.5026E-06
311.719,6.3799E-06
314.737,5.8891E-06
317.719,6.0118E-06
320.771,6.1345E-06
323.717,6.0118E-06
326.714,6.0118E-06
329.701,5.8891E-06
332.658,6.1345E-06
335.673,6.1345E-06
338.723,5.7664E-06
341.725,5.3983E-06
344.690,5.7664E-06
347.719,5.8891E-06
350.709,5.6437E-06
353.797,5.7664E-06
357.113,5.7664E-06
360.410,5.521E-06
363.408,5.7664E-06
366.404,5.7664E-06
369.401,5.3983E-06
372.384,5.6437E-06
375.401,5.1529E-06
378.402,5.521E-06
381.401,5.521E-06
384.401,5.2756E-06
387.400,5.6437E-06
390.406,5.3983E-06
393.406,4.9075E-06
396.389,5.6437E-06
399.406,5.2756E-06
402.405,5.2756E-06
405.370,5.2756E-06
408.403,5.1529E-06
411.407,5.1529E-06
414.724,5.2756E-06
417.723,5.2756E-06
420.720,5.2756E-06
423.684,5.1529E-06
426.712,4.9075E-06
429.716,5.1529E-06
432.717,5.0302E-06
435.716,5.1529E-06
539.713,3.9767E-06
542.716,4.0263E-06
545.690,4.0139E-06
548.699,4.0015E-06
551.695,4.0139E-06
554.690,4.0263E-06
557.689,4.0015E-06
560.698,4.0387E-06
563.690,4.0139E-06
566.690,4.0387E-06
569.701,4.0139E-06
572.695,4.0263E-06
575.692,4.0387E-06
578.695,4.0263E-06
581.657,4.0387E-06
584.690,4.0387E-06
587.694,4.051E-06
590.693,4.0015E-06
593.690,4.0263E-06
596.698,4.0015E-06
600.004,4.0263E-06
603.006,4.0263E-06
606.041,4.0387E-06
609.039,4.0263E-06
612.012,4.0139E-06
615.015,4.0263E-06
618.011,4.0139E-06
620.987,4.0263E-06
624.037,3.9891E-06
627.011,4.0387E-06
630.011,4.0139E-06
633.018,4.0387E-06
636.014,4.0263E-06
639.011,4.0263E-06
642.010,4.0015E-06
645.012,4.051E-06
648.004,4.0263E-06
651.005,4.051E-06
654.004,4.051E-06
657.002,4.0387E-06
660.033,4.0139E-06
662.999,4.051E-06
666.003,4.051E-06
669.004,4.051E-06
672.007,4.0139E-06
675.002,4.0139E-06
678.003,4.0139E-06
681.008,4.0387E-06
684.004,4.0139E-06
687.036,4.051E-06
690.012,4.0387E-06
693.002,4.051E-06
696.002,4.0758E-06
699.004,4.0758E-06
702.000,4.0882E-06
705.004,4.0634E-06
708.004,4.1006E-06
711.000,4.0758E-06
714.003,4.0758E-06
716.988,4.0758E-06
720.027,4.051E-06
723.012,4.0758E-06
726.011,4.1006E-06
729.016,4.051E-06
732.011,4.0758E-06
735.009,4.0758E-06
738.009,4.1006E-06
741.012,4.0882E-06
744.015,4.1006E-06
747.011,4.0634E-06
750.013,4.0882E-06
752.979,4.0758E-06
756.015,4.0634E-06
759.012,4.1006E-06
762.011,4.051E-06
764.980,4.0758E-06
768.015,4.0758E-06
771.010,4.1006E-06
774.011,4.0634E-06
777.017,4.0882E-06
780.329,4.1006E-06
783.349,4.0634E-06
786.313,4.0882E-06
789.349,4.0634E-06
792.350,4.0882E-06
795.351,4.0634E-06
798.323,4.0758E-06
801.328,4.0387E-06
804.328,4.0758E-06
807.323,4.0882E-06
810.333,4.051E-06
813.328,4.0387E-06
816.323,4.0634E-06
819.323,4.0634E-06
822.329,4.0634E-06
825.322,4.051E-06
828.337,4.051E-06
831.322,4.051E-06
834.324,4.0634E-06
837.316,4.051E-06
939.651,3.9818E-06
942.638,3.9769E-06
945.638,3.9867E-06
948.618,3.983E-06
952.598,3.9794E-06
955.633,3.9843E-06
958.629,3.983E-06
961.637,3.9781E-06
964.641,3.983E-06
967.632,3.983E-06
970.632,3.9794E-06
973.632,3.9818E-06
976.631,3.983E-06
979.631,3.9806E-06
982.632,3.9794E-06
985.633,3.9843E-06
988.612,3.9781E-06
991.633,3.9757E-06
994.632,3.9794E-06
997.636,3.9843E-06
1000.607,3.9781E-06
1005.266,3.9818E-06
1008.290,3.9818E-06
1011.289,3.9757E-06
1014.272,3.9806E-06
1017.260,3.983E-06
1020.297,3.9794E-06
1023.292,3.9806E-06
1026.294,3.9892E-06
1029.295,3.9855E-06
1032.293,3.9855E-06
1035.292,3.9892E-06
1038.276,3.9917E-06
1041.293,3.9892E-06
1044.297,3.9892E-06
1047.301,3.9991E-06
1050.297,3.9941E-06
1053.306,3.9941E-06
1056.303,3.9978E-06
1059.374,3.9941E-06
1062.582,3.9892E-06
1065.615,3.9991E-06
1068.619,3.9966E-06
1071.626,3.9941E-06
1074.637,3.9978E-06
1077.578,3.9966E-06
1080.613,3.9954E-06
1083.610,3.9929E-06
1086.623,3.9991E-06
1089.612,3.9917E-06
1092.647,3.9867E-06
1095.602,3.9954E-06
1098.614,3.9941E-06
1101.613,3.988E-06
1104.606,3.9892E-06
1107.586,3.9917E-06
1110.606,4.8467E-06
1113.604,1.2154E-05
1116.600,2.147E-05
1119.601,2.8777E-05
1122.567,3.4675E-05
1125.618,3.952E-05
1128.612,4.352E-05
1131.614,4.6794E-05
1134.613,4.9484E-05
1137.628,5.1701E-05
1140.622,5.3523E-05
1344.608,0.0052153
1347.554,0.0052178
1350.559,0.0052193
1353.501,0.0052193
1356.902,0.0052198
1359.897,0.0052198
1362.898,0.0052192
1365.902,0.005218
1368.900,0.005217
1371.921,0.0052161
1374.867,0.0052158
1377.892,0.0052144
1380.885,0.0052138
1383.875,0.0052115
1386.964,0.0052105
1390.213,0.0052095
1393.219,0.0052086
1396.248,0.0052101
1399.244,0.005216
1402.244,0.0052203
1405.534,0.0052229
1408.558,0.0052243
1411.557,0.0052255
1414.561,0.0052258
1417.561,0.0052261
1420.556,0.0052255
1424.559,0.0052252
1427.560,0.0052246
1430.560,0.0052235
1433.559,0.0052223
1436.569,0.0052213
1439.564,0.0052203
1442.565,0.0052188
1445.561,0.0052187
1448.559,0.0052176
1451.568,0.0052162
1454.569,0.0052149
1457.560,0.005214
1460.569,0.0052126
1463.566,0.0052118
1466.560,0.0052101
1469.498,0.0052088
1472.569,0.005207
1475.561,0.0052059
1478.531,0.0052037
1481.559,0.005201
1484.588,0.0051992
1487.896,0.0051967
1494.907,0.0051917
1497.889,0.005189
1500.843,0.005194
1503.847,0.0051972
1506.883,0.0051981
1509.886,0.0051978
1512.887,0.0051963
1515.864,0.0051947
1518.885,0.0051915
1521.845,0.005188
1524.890,0.0051845
1527.886,0.0051805
1530.884,0.0051771
1533.886,0.0051739
1536.835,0.0051712
1539.873,0.0051677
1542.871,0.0051647
1545.871,0.0051626
1548.890,0.0051602
1551.876,0.0051577
1554.873,0.0051551
1557.871,0.0051532
1560.876,0.0051517
1563.875,0.0051507
1566.871,0.0051494
1569.871,0.0051486
1572.878,0.0051475
1575.875,0.0051469
1578.874,0.0051459
1581.871,0.0051523
1584.898,0.0051571
1587.838,0.0051601
1590.873,0.0051624
1593.839,0.0051639
1597.219,0.0051651
1600.219,0.0051653
1603.219,0.0051651
1606.532,0.0051655
1609.533,0.0051651
1612.516,0.0051645
1615.534,0.0051641
1618.533,0.0051635
1621.534,0.0051629
1624.537,0.0051623
1627.534,0.0051615
1630.534,0.0051612
1633.538,0.0051603
1636.517,0.0051598
1639.534,0.0051593
1642.534,0.0051581
1645.871,0.0051571
1648.872,0.0051561
1651.844,0.0051551
1654.870,0.0051545
1657.846,0.0051538
1660.857,0.0051529
1663.846,0.005152
1666.845,0.0051516
1669.858,0.0051505
1672.812,0.0051501
1675.845,0.0051531
1678.850,0.0051585
1681.849,0.0051624
1684.851,0.0051655
1687.843,0.005167
1690.816,0.0051678
1693.845,0.0051685
1696.845,0.0051688
1699.843,0.005169
1702.809,0.0051691
1706.510,0.0051695
1709.479,0.0051685
1712.506,0.0051678
1715.512,0.0051673
1718.473,0.0051669
1721.506,0.0051661
1724.515,0.0051648
1727.507,0.0051639
1730.506,0.0051631
1733.509,0.0051617
1736.465,0.005161
1739.506,0.0051604
1742.511,0.0051597
1745.507,0.0051592
1748.512,0.0051577
1751.510,0.0051576
1754.508,0.0051564
1757.506,0.0051554
1760.506,0.0051545
1763.512,0.0051538
1766.531,0.0051526
1769.474,0.0051515
1772.515,0.005151
1775.506,0.0051507
1778.507,0.0051499
1781.504,0.0051494
1784.507,0.0051527
1787.504,0.0051581
1790.511,0.005162
1793.507,0.0051645
1796.510,0.0051663
1799.510,0.0051675
1802.510,0.0051683
1805.507,0.0051686
1808.505,0.0051679
1811.474,0.0051678
1814.509,0.0051675
1817.506,0.0051672
1820.484,0.0051666
1823.506,0.0051663
1826.506,0.0051653
1829.506,0.005165
1832.506,0.0051636
1835.507,0.0051624
1838.512,0.0051618
1841.507,0.0051603
1844.480,0.0051586
1847.511,0.0051576
1850.510,0.0051564
1853.505,0.005155
1856.509,0.0051537
1859.476,0.0051524
1862.484,0.0051511
1865.508,0.0051496
1868.486,0.005149
1871.453,0.0051472
1874.478,0.0051462
1877.506,0.0051451
1880.481,0.0051442
1883.480,0.005143
1886.478,0.0051423
1889.483,0.0051428
1893.166,0.0051493
1896.166,0.0051531
1899.166,0.0051558
1902.170,0.0051577
1905.136,0.0051586
1908.472,0.0051596
1911.470,0.0051602
1914.456,0.0051599
1917.454,0.0051594
1920.492,0.0051591
1923.484,0.0051587
1926.489,0.0051585
1929.486,0.0051578
1932.457,0.0051569
1935.498,0.005156
1938.819,0.0051556
1941.818,0.0051545
1945.166,0.0051538
1948.126,0.0051531
1951.814,0.0051513
1954.824,0.0051501
1957.816,0.005149
1960.792,0.0051479
1963.814,0.0051472
1966.786,0.0051462
1970.101,0.005145
1973.135,0.0051443
1976.135,0.0051425
1979.140,0.0051418
1982.136,0.0051407
1985.134,0.0051401
1988.147,0.0051386
1991.141,0.0051455
1994.139,0.0051495
1997.144,0.005152
2000.106,0.0051537
2003.155,0.0051539
2006.443,0.0051539
2009.480,0.0051534
2012.462,0.0051526
2015.424,0.0051517
2018.477,0.0051507
2021.418,0.0051501
2024.476,0.0051493
2027.448,0.0051474
2030.421,0.0051461
2033.480,0.0051447
2036.401,0.0051436
2039.446,0.0051424
2042.476,0.0051415
2045.475,0.0051405
2048.452,0.0051396
2051.425,0.0051387
2054.453,0.0051378
2057.425,0.0051371
2060.433,0.0051361
2063.425,0.0051353
2066.424,0.0051343
2069.431,0.0051331
2072.425,0.0051317
2075.424,0.0051309
2078.422,0.00513
2081.422,0.0051288
2084.428,0.005128
2087.447,0.005127
2090.417,0.0051257
2093.428,0.005127
2096.749,0.0051338
2099.758,0.0051377
2102.729,0.0051397
2105.761,0.0051415
2108.762,0.0051426
2111.758,0.0048258
2114.758,0.0038456
2117.756,0.0031216
2120.757,0.0025598
2123.754,0.0021132
2126.781,0.0017515
2129.784,0.0014564
2132.760,0.0012139
2135.784,0.0010127
2138.756,0.00084598
2141.758,0.00070635
2144.758,0.00059041
2147.758,0.00049323
2150.730,0.0004114
2153.756,0.00034404
2156.737,0.00028723
2159.731,0.00024048
2162.756,0.00020134
2165.747,0.0001692
2168.739,0.00014196
2171.731,0.00012
2174.732,0.00010171
2177.762,8.6254E-05
2180.764,7.3862E-05
2183.756,6.282E-05
2186.789,5.4231E-05
2189.739,4.6869E-05
2192.790,4.0734E-05
2195.736,3.6072E-05
2198.734,3.1164E-05
2201.737,2.7852E-05
2204.740,2.5029E-05
2207.735,2.233E-05
2210.761,2.0244E-05
2213.747,1.8527E-05
2216.755,1.7054E-05
2219.760,1.5705E-05
2222.760,1.46E-05
2225.763,1.3496E-05
2228.769,1.3005E-05
2231.761,1.2147E-05
2234.797,1.1656E-05
2237.761,1.0797E-05
2240.751,1.0674E-05
2243.760,1.0061E-05
2246.783,9.8154E-06
2250.074,9.4472E-06
2253.108,9.0792E-06
2256.081,8.9564E-06
2259.084,8.5884E-06
2262.082,8.343E-06
2265.081,7.9749E-06
2268.090,7.8522E-06
2271.081,8.0976E-06
2274.082,7.4842E-06
2277.113,7.7295E-06
2280.056,7.2388E-06
2283.083,7.3614E-06
2286.084,7.2388E-06
2289.060,6.6252E-06
2292.066,7.116E-06
2295.060,6.8706E-06
2298.087,6.8706E-06
2301.083,6.9934E-06
2304.158,6.6252E-06
2307.085,6.8706E-06
2310.083,6.5026E-06
2313.057,6.748E-06
2316.064,6.0118E-06
2319.058,6.2572E-06
2322.059,6.0118E-06
2325.070,6.0118E-06
2328.056,6.5026E-06
2331.057,6.2572E-06
2334.059,6.0118E-06
2337.089,5.8891E-06
2340.061,5.7664E-06
2343.055,5.7664E-06
2346.056,5.7664E-06
2349.058,6.1345E-06
2352.057,5.8891E-06
2355.056,5.8891E-06
2358.056,5.6437E-06
2361.058,5.7664E-06
2364.139,6.0118E-06
2367.056,5.6437E-06
2370.056,5.521E-06
2373.056,5.521E-06
2376.055,5.6437E-06
2379.055,5.521E-06
2382.058,5.521E-06
2385.055,5.521E-06
2388.061,5.6437E-06
2391.056,5.2756E-06
2394.056,5.3983E-06
2397.055,5.6437E-06
2400.059,5.7664E-06
2403.055,5.521E-06
2406.055,5.521E-06
2409.058,5.0302E-06
2412.060,5.3983E-06
2415.055,5.1529E-06
2418.091,5.2756E-06
2421.056,5.521E-06
2424.133,5.521E-06
2427.055,5.3983E-06
2430.058,4.9075E-06
2433.056,5.3983E-06
2436.079,5.2756E-06
2439.056,4.9075E-06
2442.055,5.3983E-06
2445.054,5.2756E-06
2547.382,4.1254E-06
2550.371,4.1254E-06
2553.387,4.1254E-06
2556.392,4.113E-06
2559.347,4.113E-06
2562.339,4.113E-06
2565.340,4.1254E-06
2568.378,4.1006E-06
2571.371,4.113E-06
2574.371,4.1501E-06
2577.368,4.1006E-06
2580.375,4.0882E-06
2583.347,4.1006E-06
2586.380,4.1254E-06
2589.343,4.0882E-06
2592.396,4.0758E-06
2595.684,4.0882E-06
2598.682,4.0882E-06
2601.682,4.0882E-06
2604.688,4.113E-06
2607.682,4.0882E-06
2610.682,4.0882E-06
2613.687,4.051E-06
2616.682,4.0882E-06
2619.687,4.0263E-06
2622.682,4.0634E-06
2625.685,4.0139E-06
2628.688,4.051E-06
2631.712,4.0263E-06
2634.682,4.0139E-06
2637.683,4.0263E-06
2640.682,4.0015E-06
2643.684,3.9767E-06
2646.682,4.0015E-06
2649.682,4.0015E-06
2652.689,3.9396E-06
2655.681,3.9767E-06
2658.682,3.9891E-06
2661.684,3.9767E-06
2664.685,3.9767E-06
2667.682,4.0015E-06
2670.682,3.9767E-06
2673.718,3.9519E-06
2676.688,3.9396E-06
2679.682,3.9643E-06
2682.682,3.9396E-06
2685.682,3.9891E-06
2688.716,3.9519E-06
2691.684,3.9272E-06
2694.712,3.9396E-06
2697.682,3.9396E-06
2700.688,3.9396E-06
2703.666,3.9396E-06
2706.684,3.9148E-06
2709.684,3.9272E-06
2712.682,3.9396E-06
2715.659,3.9396E-06
2718.680,3.9396E-06
2721.657,3.9396E-06
2724.663,3.9148E-06
2727.682,3.9148E-06
2730.656,3.9148E-06
2733.657,3.9396E-06
2736.659,3.9396E-06
2739.656,3.9024E-06
2742.656,3.9024E-06
2745.682,3.9643E-06
2748.664,3.9272E-06
2751.654,3.9148E-06
2754.681,3.9396E-06
2757.656,3.9272E-06
2760.656,3.9024E-06
2763.651,3.9024E-06
2766.651,3.9272E-06
2769.650,3.9519E-06
2772.659,3.9272E-06
2775.652,3.9148E-06
2778.651,3.9643E-06
2781.654,3.9643E-06
2784.653,3.9643E-06
2787.651,3.9767E-06
2790.653,3.9519E-06
2793.651,3.9519E-06
2796.655,3.9519E-06
2799.654,3.9643E-06
2802.667,3.9891E-06
2805.651,3.9643E-06
2808.651,3.9767E-06
2811.656,3.9767E-06
2814.652,3.9272E-06
2817.651,3.9767E-06
2820.639,3.9519E-06
2823.651,3.9272E-06
2826.687,3.9396E-06
2829.654,3.9643E-06
2832.651,3.9148E-06
2835.652,3.9396E-06
2838.651,3.9272E-06
2841.658,3.9272E-06
2844.638,3.9024E-06
2947.327,3.887E-06
2950.290,3.8833E-06
2953.288,3.882E-06
2956.291,3.8906E-06
2959.289,3.8882E-06
2962.290,3.8857E-06
2965.284,3.8931E-06
2968.303,3.8956E-06
2971.289,3.8857E-06
2974.289,3.8956E-06
2977.293,3.9054E-06
2980.294,3.8956E-06
2983.289,3.8956E-06
2986.289,3.9054E-06
2989.289,3.9054E-06
2992.290,3.8968E-06
2995.291,3.9091E-06
2998.259,3.9104E-06
3001.290,3.9017E-06
3004.296,3.9079E-06
3007.289,3.9104E-06
3010.289,3.9042E-06
3013.292,3.9042E-06
3016.291,3.9104E-06
3019.289,3.9042E-06
3022.297,3.903E-06
3025.293,3.9067E-06
3028.292,3.9116E-06
3031.289,3.9017E-06
3034.291,3.9042E-06
3037.289,3.9104E-06
3040.289,3.9042E-06
3043.291,3.9067E-06
3046.290,3.9116E-06
3049.289,3.9128E-06
3052.296,3.9091E-06
3055.290,3.9165E-06
3058.289,3.9214E-06
3061.292,3.9165E-06
3064.290,3.9178E-06
3067.289,3.9276E-06
3070.288,3.9202E-06
3073.293,3.9227E-06
3076.272,3.9313E-06
3079.292,3.9338E-06
3082.291,3.9301E-06
3085.289,3.935E-06
3088.291,3.9362E-06
3091.263,3.9313E-06
3094.291,3.9375E-06
3097.265,3.9424E-06
3100.268,3.935E-06
3103.288,3.9375E-06
3106.289,3.9436E-06
3109.265,3.9412E-06
3112.291,3.9338E-06
3115.265,3.9412E-06
3118.263,4.3083E-06
3121.263,9.2424E-06
3124.270,1.9271E-05
3127.295,2.7023E-05
3130.290,3.3249E-05
3133.290,3.834E-05
3136.315,4.2552E-05
3139.291,4.6E-05
3142.291,4.8831E-05
3145.289,5.1161E-05
3148.296,5.3077E-05
3151.291,5.4651E-05
3353.273,0.0051667
3356.249,0.0051659
3359.255,0.0051643
3362.274,0.0051632
3365.267,0.005169
3368.264,0.0051731
3371.256,0.005176
3374.264,0.0051777
3377.263,0.0051785
3380.273,0.0051783
3383.259,0.0051786
3386.271,0.0051782
3389.257,0.0051776
3392.242,0.0051771
3395.224,0.005176
3398.262,0.005175
3401.252,0.0051744
3404.268,0.0051731
3407.255,0.0051718
3410.228,0.0051706
3413.254,0.0051689
3416.227,0.0051677
3419.219,0.0051664
3422.199,0.0051678
3425.259,0.0051731
3428.238,0.0051772
3431.255,0.0051791
3434.259,0.0051804
3437.233,0.0051816
3440.233,0.0051821
3443.237,0.0051819
3446.230,0.0051818
3449.233,0.0051813
3452.202,0.0051807
3455.231,0.0051797
3458.237,0.0051788
3461.244,0.005178
3464.247,0.0051767
3467.213,0.005176
3470.244,0.0051748
3473.269,0.0051742
3476.247,0.0051733
3479.243,0.0051718
3482.242,0.0051706
3485.242,0.0051694
3488.243,0.0051686
3491.242,0.0051673
3494.242,0.005167
3497.209,0.0051658
3500.239,0.0051655
3503.243,0.0051647
3506.242,0.0051634
3509.251,0.0051621
3512.247,0.0051612
3515.248,0.0051597
3518.243,0.0051587
3521.250,0.0051576
3524.252,0.0051563
3527.243,0.0051555
3530.211,0.0051576
3533.243,0.0051635
3536.241,0.0051683
3539.242,0.0051705
3542.242,0.0051726
3545.257,0.0051742
3548.216,0.0051747
3551.244,0.0051742
3554.242,0.0051737
3557.245,0.0051742
3560.246,0.0051736
3563.242,0.0051727
3566.244,0.0051727
3569.249,0.0051718
3572.247,0.0051704
3575.242,0.0051702
3578.241,0.0051693
3581.242,0.0051679
3584.236,0.0051674
3587.247,0.0051661
3590.219,0.0051656
3593.242,0.0051641
3596.221,0.0051626
3599.215,0.0051626
3602.288,0.0051617
3605.528,0.005161
3608.558,0.0051598
3611.563,0.0051593
3614.562,0.0051583
3617.550,0.0051578
3620.534,0.0051569
3623.525,0.0051559
3626.526,0.0051618
3629.575,0.0051664
3632.562,0.00517
3635.594,0.0051721
3638.861,0.0051734
3641.899,0.0051745
3644.900,0.0051751
3647.892,0.0051754
3650.894,0.0051747
3654.183,0.0051744
3657.216,0.0051734
3660.220,0.0051721
3663.216,0.0051706
3666.221,0.0051702
3669.196,0.0051688
3672.217,0.0051678
3675.221,0.0051673
3678.220,0.0051659
3681.216,0.0051645
3684.226,0.0051635
3687.189,0.0051626
3690.217,0.0051613
3693.216,0.0051604
3696.215,0.0051593
3699.220,0.0051592
3702.221,0.0051661
3705.187,0.0051707
3708.221,0.0051739
3711.221,0.0051758
3714.238,0.0051777
3717.217,0.0051785
3720.216,0.0051787
3723.220,0.0051791
3726.220,0.005178
3729.219,0.0051776
3732.217,0.005177
3735.222,0.0051761
3738.220,0.0051756
3741.220,0.0051753
3744.532,0.0051744
3747.502,0.0051738
3750.529,0.0051732
3753.531,0.005172
3756.536,0.0051717
3759.500,0.0051707
3762.532,0.0051705
3765.558,0.0051697
3768.500,0.0051685
3771.532,0.0051678
3774.561,0.0051673
3777.535,0.0051663
3780.536,0.0051655
3783.531,0.0051643
3786.529,0.0051631
3789.504,0.0051623
3792.530,0.005161
3795.530,0.0051596
3798.540,0.0051618
3801.531,0.0051677
3804.535,0.0051713
3807.530,0.0051734
3810.531,0.0051756
3813.532,0.0051764
3816.535,0.0051766
3819.566,0.0051761
3822.531,0.005176
3825.535,0.0051761
3828.509,0.0051754
3831.531,0.0051751
3834.557,0.0051744
3837.535,0.0051739
3840.531,0.0051732
3843.534,0.005172
3846.529,0.0051718
3849.529,0.005171
3852.489,0.0051702
3855.530,0.0051694
3858.497,0.0051684
3861.505,0.005168
3864.537,0.0051675
3867.532,0.0051663
3870.497,0.0051658
3873.500,0.0051643
3876.510,0.0051636
3879.510,0.0051628
3882.507,0.0051618
3885.529,0.0051607
3888.817,0.005159
3891.815,0.0051577
3894.873,0.0051567
3897.870,0.0051554
3900.818,0.0051544
3903.872,0.0051596
3906.847,0.0051641
3909.848,0.0051668
3912.873,0.0051707
3915.842,0.005172
3918.868,0.0051724
3921.846,0.0051736
3924.847,0.0051729
3927.846,0.0051733
3930.849,0.0051731
3933.843,0.0051727
3936.841,0.0051724
3939.841,0.0051712
3942.847,0.0051701
3945.842,0.0051699
3948.812,0.0051686
3952.193,0.005167
3955.496,0.0051657
3958.491,0.0051655
3961.504,0.0051648
3964.508,0.0051636
3967.500,0.0051626
3970.498,0.005162
3973.504,0.0051608
3976.502,0.0051599
3979.501,0.0051593
3982.506,0.005158
3985.527,0.0051567
3988.504,0.005156
3991.500,0.0051621
3994.502,0.0051664
3997.476,0.00517
4000.481,0.0051713
4005.817,0.005174
4008.843,0.005175
4011.842,0.0051747
4014.870,0.0051739
4017.846,0.0051734
4020.849,0.0051738
4023.842,0.0051732
4026.849,0.0051727
4029.845,0.0051726
4032.844,0.005172
4035.832,0.0051717
4038.843,0.0051712
4041.846,0.0051704
4044.793,0.0051694
4047.816,0.005169
4050.815,0.0051685
4053.848,0.0051677
4056.843,0.005167
4059.842,0.0051664
4062.847,0.0051655
4065.846,0.0051645
4068.834,0.0051631
4072.163,0.0051621
4075.163,0.0051618
4078.163,0.0051605
4081.163,0.0051598
4084.139,0.0051587
4087.166,0.0051578
4090.138,0.0051563
4093.131,0.0051555
4096.164,0.0051585
4099.138,0.0051642
4102.166,0.0051682
4105.483,0.0051712
4108.494,0.0051731
4111.478,0.0051739
4114.475,0.0051745
4117.478,0.0051748
4120.477,0.0048244
4123.478,0.0038445
4126.483,0.0031209
4129.478,0.0025598
4132.486,0.0021126
4135.472,0.0017516
4138.507,0.0014568
4141.477,0.0012138
4144.504,0.001013
4147.483,0.00084574
4150.478,0.0007066
4153.482,0.00059053
4156.450,0.00049311
4159.478,0.00041152
4162.476,0.00034379
4165.479,0.00028772
4168.478,0.00024048
4171.476,0.00020159
4174.478,0.00016932
4177.478,0.00014257
4180.510,0.00012012
4183.509,0.00010184
4186.479,8.6254E-05
4189.483,7.3617E-05
4192.481,6.3065E-05
4195.478,5.4354E-05
4198.478,4.6746E-05
4201.483,4.1103E-05
4204.460,3.5704E-05
4207.479,3.1164E-05
4210.476,2.7729E-05
4213.445,2.5029E-05
4216.478,2.233E-05
4219.477,2.049E-05
4222.478,1.8281E-05
4225.478,1.6809E-05
4228.457,1.5582E-05
4231.508,1.4232E-05
4234.506,1.3619E-05
4237.484,1.2883E-05
4240.504,1.1778E-05
4243.511,1.1288E-05
4246.505,1.092E-05
4249.507,1.0429E-05
4252.979,1.0183E-05
4256.139,9.57E-06
4259.137,9.2018E-06
4262.140,8.8338E-06
4265.149,8.711E-06
4268.142,8.5884E-06
4271.138,8.4656E-06
4274.081,7.7295E-06
4277.137,7.8522E-06
4280.138,7.3614E-06
4283.111,7.7295E-06
4286.135,7.4842E-06
4289.137,7.3614E-06
4292.116,7.3614E-06
4295.113,7.116E-06
4298.110,7.116E-06
4301.155,6.8706E-06
4304.140,6.9934E-06
4307.137,6.748E-06
4310.112,6.9934E-06
4313.142,6.8706E-06
4316.116,6.5026E-06
4319.096,6.8706E-06
4322.110,6.5026E-06
4325.111,6.3799E-06
4328.123,6.3799E-06
4331.111,6.2572E-06
4334.111,6.2572E-06
4337.079,6.1345E-06
4340.116,6.2572E-06
4343.113,5.7664E-06
4346.113,6.2572E-06
4351.447,6.2572E-06
4354.449,5.7664E-06
4357.449,6.0118E-06
4360.418,5.8891E-06
4363.451,5.6437E-06
4366.450,5.7664E-06
4369.432,6.0118E-06
4372.458,5.6437E-06
4375.450,6.0118E-06
4378.454,5.8891E-06
4381.451,5.3983E-06
4384.448,5.6437E-06
4387.456,5.7664E-06
4390.454,5.7664E-06
4393.450,5.3983E-06
4396.437,5.6437E-06
4399.787,5.521E-06
4402.788,5.521E-06
4405.770,5.8891E-06
4408.790,5.1529E-06
4411.790,5.521E-06
4414.790,5.521E-06
4417.795,5.1529E-06
4420.771,5.521E-06
4423.790,5.3983E-06
4426.795,5.521E-06
4429.764,5.0302E-06
4432.868,5.1529E-06
4436.114,5.521E-06
4439.115,5.2756E-06
4442.110,5.521E-06
4445.111,5.2756E-06
4448.111,5.2756E-06
4451.116,5.3983E-06
4454.116,5.0302E-06
4556.109,4.1749E-06
4559.085,4.1378E-06
4562.093,4.1749E-06
4565.077,4.1501E-06
4568.085,4.1501E-06
4571.076,4.1501E-06
4574.091,4.113E-06
4577.088,4.1749E-06
4580.089,4.1501E-06
4583.423,4.1873E-06
4586.421,4.1501E-06
4589.398,4.1501E-06
4592.425,4.1501E-06
4595.424,4.1378E-06
4598.423,4.1501E-06
4601.431,4.1254E-06
4604.405,4.1378E-06
4607.423,4.1625E-06
4610.423,4.1501E-06
4613.430,4.1378E-06
4616.738,4.1625E-06
4619.750,4.1501E-06
4623.085,4.1501E-06
4626.059,4.1501E-06
4629.053,4.1625E-06
4632.085,4.1625E-06
4635.084,4.1625E-06
4638.091,4.1625E-06
4641.084,4.1378E-06
4644.066,4.1501E-06
4647.083,4.1254E-06
4650.084,4.1873E-06
4653.087,4.1006E-06
4656.063,4.1378E-06
4659.058,4.1625E-06
4662.084,4.1254E-06
4665.059,4.1625E-06
4668.063,4.1625E-06
4671.086,4.1625E-06
4674.089,4.1378E-06
4677.396,4.1501E-06
4680.397,4.1501E-06
4683.402,4.1378E-06
4686.395,4.1501E-06
4689.397,4.1378E-06
4692.404,4.1254E-06
4695.396,4.1749E-06
4698.396,4.1254E-06
4701.396,4.1254E-06
4704.396,4.1625E-06
4707.396,4.1625E-06
4710.401,4.1625E-06
4713.739,4.1749E-06
4716.716,4.1254E-06
4719.741,4.1501E-06
4722.741,4.1254E-06
4725.738,4.1378E-06
4728.738,4.1378E-06
4731.744,4.1501E-06
4734.716,4.1749E-06
4738.020,4.1625E-06
4741.050,4.113E-06
4744.052,4.1501E-06
4747.052,4.1625E-06
4749.996,4.1501E-06
4753.023,4.1625E-06
4756.051,4.1625E-06
4759.054,4.1501E-06
4762.049,4.1254E-06
4765.050,4.1254E-06
4768.053,4.1254E-06
4771.049,4.1625E-06
4774.052,4.1749E-06
4777.056,4.1625E-06
4780.033,4.1501E-06
4783.053,4.1625E-06
4786.047,4.1749E-06
4789.021,4.1501E-06
4792.051,4.1749E-06
4795.051,4.1749E-06
4798.081,4.1501E-06
4801.049,4.1501E-06
4804.051,4.1501E-06
4807.051,4.2121E-06
4810.050,4.1378E-06
4813.015,4.1625E-06
4816.053,4.1501E-06
4819.006,4.1625E-06
4822.050,4.1378E-06
4825.051,4.1501E-06
4828.003,4.1625E-06
4831.055,4.1625E-06
4834.023,4.1749E-06
4837.050,4.1873E-06
4840.052,4.1749E-06
4843.061,4.1625E-06
4846.038,4.1378E-06
4849.035,4.1997E-06
4852.030,4.1625E-06
4855.002,4.1378E-06
4956.050,4.1001E-06
4959.030,4.1026E-06
4962.027,4.0964E-06
4965.034,4.1013E-06
4968.027,4.105E-06
4971.028,4.0989E-06
4974.027,4.1026E-06
4977.029,4.1136E-06
4980.032,4.1026E-06
4983.003,4.1026E-06
4986.035,4.1124E-06
4989.027,4.1075E-06
4992.027,4.105E-06
4995.034,4.1112E-06
4998.027,4.1124E-06
5001.020,4.105E-06
5004.005,4.1087E-06
5007.029,4.1149E-06
5010.006,4.105E-06
5013.032,4.1013E-06
5016.315,4.1112E-06
5019.334,4.1038E-06
5022.341,4.0976E-06
5025.339,4.1026E-06
5028.352,4.1013E-06
5031.349,4.0964E-06
5034.344,4.0989E-06
5037.362,4.1026E-06
5040.683,4.0927E-06
5043.685,4.0976E-06
5046.685,4.1026E-06
5049.685,4.0952E-06
5052.688,4.0902E-06
5055.685,4.0976E-06
5058.690,4.0976E-06
5061.687,4.0939E-06
5064.686,4.1001E-06
5067.690,4.1038E-06
5070.688,4.0964E-06
5073.686,4.0989E-06
5076.973,4.105E-06
5080.007,4.0989E-06
5083.010,4.0989E-06
5086.009,4.1026E-06
5089.007,4.1038E-06
5091.977,4.0964E-06
5095.010,4.1026E-06
5098.008,4.1075E-06
5101.016,4.0952E-06
5104.347,4.1026E-06
5107.307,4.1062E-06
5110.345,4.1001E-06
5113.350,4.0989E-06
5116.353,4.105E-06
5119.344,4.1038E-06
5122.348,4.0964E-06
5125.345,4.1124E-06
5128.318,5.831E-06
5131.350,1.4963E-05
5134.319,2.3635E-05
5137.324,3.051E-05
5140.324,3.6093E-05
5143.349,4.0689E-05
5146.323,4.4475E-05
5149.322,4.7577E-05
5152.320,5.0126E-05
5155.343,5.2232E-05
5158.325,5.3959E-05
5362.024,0.0051767
5365.296,0.0051756
5368.293,0.0051739
5371.293,0.0051753
5374.294,0.0051799
5377.293,0.0051848
5380.293,0.0051867
5383.286,0.0051888
5386.271,0.0051894
5389.239,0.0051897
5392.268,0.0051889
5395.304,0.0051889
5398.299,0.0051884
5401.301,0.0051873
5404.256,0.0051868
5407.291,0.0051857
5410.283,0.005185
5413.284,0.0051841
5416.288,0.005183
5419.260,0.0051819
5422.291,0.0051807
5425.280,0.0051799
5428.268,0.0051782
5431.258,0.0051776
5434.280,0.0051765
5437.283,0.0051754
5440.285,0.0051748
5443.285,0.0051736
5446.259,0.0051737
5449.282,0.0051733
5452.278,0.0051723
5455.285,0.0051713
5458.260,0.0051712
5461.283,0.00517
5464.257,0.0051691
5467.250,0.0051688
5470.286,0.0051718
5473.257,0.0051772
5476.230,0.0051807
5479.258,0.0051835
5482.291,0.0051852
5485.231,0.0051857
5488.266,0.0051862
5491.265,0.0051863
5494.270,0.0051857
5497.268,0.0051848
5500.274,0.0051847
5503.264,0.0051841
5506.271,0.005183
5509.266,0.0051824
5512.266,0.0051813
5515.264,0.0051799
5518.268,0.0051788
5521.266,0.0051778
5524.276,0.0051772
5527.266,0.0051764
5530.232,0.0051755
5533.270,0.0051745
5536.264,0.0051737
5539.267,0.0051736
5542.271,0.0051733
5545.268,0.0051726
5548.271,0.0051786
5551.272,0.0051818
5554.271,0.0051841
5557.265,0.0051852
5560.266,0.0051862
5563.263,0.0051864
5566.265,0.0051862
5569.270,0.0051864
5572.276,0.0051859
5575.265,0.0051855
5578.266,0.0051845
5581.270,0.0051845
5584.232,0.0051847
5587.266,0.0051836
5590.271,0.0051825
5593.269,0.0051813
5596.271,0.0051805
5599.242,0.0051793
5602.280,0.0051787
5605.245,0.0051781
5608.243,0.0051772
5611.274,0.0051766
5614.264,0.0051766
5617.270,0.0051751
5620.243,0.0051743
5623.270,0.0051734
5626.239,0.0051727
5629.240,0.0051711
5632.242,0.0051699
5635.234,0.0051688
5638.270,0.005168
5641.240,0.0051668
5644.245,0.0051732
5647.243,0.0051781
5650.239,0.0051812
5653.264,0.0051836
5656.243,0.0051857
5659.239,0.0051869
5662.590,0.0051872
5665.583,0.0051863
5668.554,0.0051862
5671.586,0.0051858
5674.581,0.0051856
5677.581,0.0051845
5680.582,0.005184
5683.581,0.0051835
5686.552,0.0051821
5689.919,0.0051818
5692.899,0.0051816
5695.924,0.0051812
5698.918,0.0051801
5701.905,0.0051794
5704.917,0.0051782
5707.867,0.0051769
5710.919,0.0051754
5713.891,0.0051747
5716.898,0.0051729
5719.918,0.0051717
5722.924,0.0051709
5725.919,0.0051697
5728.919,0.0051686
5731.923,0.0051678
5734.893,0.0051673
5737.897,0.0051658
5740.900,0.0051651
5743.892,0.0051648
5746.895,0.0051711
5749.861,0.0051759
5752.891,0.0051783
5755.892,0.0051802
5758.900,0.0051812
5761.892,0.0051815
5764.895,0.0051818
5767.892,0.0051819
5770.893,0.0051815
5773.893,0.0051813
5776.897,0.0051804
5779.891,0.0051797
5782.920,0.0051791
5785.862,0.0051781
5788.899,0.0051767
5791.893,0.005176
5794.893,0.0051749
5797.897,0.0051739
5800.892,0.0051731
5803.893,0.0051718
5806.890,0.005171
5809.892,0.00517
5812.900,0.0051694
5815.892,0.0051678
5818.878,0.0051674
5821.892,0.0051658
5824.894,0.0051645
5827.891,0.005164
5830.893,0.0051632
5833.861,0.0051628
5836.871,0.0051619
5839.892,0.0051662
5842.862,0.0051717
5845.898,0.005176
5848.893,0.0051788
5851.830,0.0051813
5854.889,0.0051828
5857.893,0.0051836
5860.898,0.0051841
5863.892,0.0051842
5866.867,0.0051837
5869.865,0.0051837
5872.867,0.0051836
5875.859,0.0051829
5878.893,0.0051826
5881.898,0.0051819
5884.876,0.0051812
5888.212,0.0051801
5891.180,0.0051792
5894.215,0.0051783
5897.213,0.0051781
5900.218,0.0051771
5903.214,0.0051763
5906.182,0.0051753
5909.215,0.0051748
5912.214,0.0051737
5915.218,0.0051728
5918.217,0.0051723
5921.211,0.0051717
5924.192,0.0051709
5927.215,0.0051701
5930.213,0.0051693
5933.213,0.005168
5936.228,0.005167
5939.213,0.0051667
5942.213,0.0051737
5945.214,0.0051785
5948.209,0.0051818
5952.186,0.0051842
5955.209,0.0051853
5958.209,0.0051861
5961.213,0.0051863
5964.213,0.0051862
5967.187,0.0051859
5970.184,0.005185
5973.182,0.0051847
5976.208,0.0051837
5979.208,0.005184
5982.184,0.0051834
5985.182,0.0051824
5988.185,0.0051819
5991.182,0.0051807
5994.182,0.0051792
5997.188,0.0051781
6000.150,0.0051772
6003.151,0.0051759
6006.185,0.005175
6009.182,0.005174
6012.186,0.0051732
6015.152,0.0051721
6018.151,0.0051715
6021.186,0.005171
6024.184,0.0051695
6027.183,0.0051693
6030.182,0.0051678
6033.194,0.0051669
6036.195,0.0051663
6039.187,0.0051657
6042.188,0.0051642
6045.193,0.0051635
6048.188,0.0051626
6051.188,0.0051668
6054.184,0.0051726
6057.187,0.0051769
6060.192,0.0051797
6063.187,0.0051819
6066.187,0.0051832
6069.189,0.0051842
6072.190,0.0051846
6075.188,0.0051846
6078.186,0.005185
6081.192,0.005185
6084.191,0.0051841
6087.187,0.0051837
6090.188,0.0051832
6093.200,0.005183
6096.494,0.0051823
6099.495,0.0051816
6102.526,0.0051808
6105.498,0.0051808
6108.500,0.0051793
6111.528,0.0051782
6114.502,0.0051778
6117.503,0.005178
6120.490,0.0051776
6123.495,0.005176
6126.528,0.0051751
6129.534,0.0045998
6132.533,0.0036851
6135.540,0.0029987
6138.520,0.0024632
6141.581,0.0020354
6144.554,0.0016888
6147.529,0.0014049
6150.527,0.001171
6153.500,0.00097739
6156.510,0.00081641
6159.502,0.00068194
6162.501,0.00057004
6165.502,0.00047606
6168.510,0.00039753
6171.503,0.00033226
6174.506,0.0002779
6177.502,0.00023238
6180.507,0.00019521
6183.507,0.0001638
6186.504,0.00013815
6189.499,0.00011631
6192.508,9.8769E-05
6195.508,8.38E-05
6198.502,7.1776E-05
6201.574,6.1224E-05
6204.852,5.2022E-05
6207.810,4.5029E-05
6210.840,3.9017E-05
6213.844,3.4722E-05
6216.851,3.0551E-05
6219.839,2.6625E-05
6222.845,2.4416E-05
6225.844,2.1594E-05
6228.819,1.9508E-05
6231.807,1.7913E-05
6234.847,1.6686E-05
6237.865,1.5091E-05
6240.807,1.4232E-05
6243.875,1.3128E-05
6246.840,1.2515E-05
6249.865,1.1901E-05
6252.851,1.1288E-05
6255.873,1.1042E-05
6258.869,1.0183E-05
6262.161,9.57E-06
6265.128,9.6926E-06
6268.169,9.2018E-06
6271.162,8.9564E-06
6274.165,8.5884E-06
6277.161,8.5884E-06
6280.175,7.9749E-06
6283.161,8.0976E-06
6286.164,8.0976E-06
6289.161,7.4842E-06
6292.166,7.9749E-06
6295.166,7.6068E-06
6298.164,7.6068E-06
6301.140,7.2388E-06
6304.171,7.116E-06
6307.135,7.116E-06
6310.161,6.748E-06
6313.161,6.8706E-06
6316.140,6.748E-06
6319.163,6.3799E-06
6322.503,6.748E-06
6325.478,6.6252E-06
6328.445,6.5026E-06
6331.468,6.3799E-06
6334.476,6.3799E-06
6337.476,6.6252E-06
6340.489,6.0118E-06
6343.471,6.0118E-06
6346.505,6.0118E-06
6349.481,6.2572E-06
6352.501,6.2572E-06
6355.476,6.1345E-06
6358.482,5.8891E-06
6361.481,6.2572E-06
6364.481,5.521E-06
6367.476,5.8891E-06
6370.473,6.0118E-06
6373.477,5.8891E-06
6376.443,5.7664E-06
6379.476,5.8891E-06
6382.507,5.521E-06
6385.411,5.6437E-06
6388.487,5.8891E-06
6391.453,5.521E-06
6394.445,5.6437E-06
6397.447,5.521E-06
6400.444,5.521E-06
6403.476,5.3983E-06
6406.526,5.3983E-06
6409.812,5.3983E-06
6412.790,5.6437E-06
6415.814,5.1529E-06
6418.823,5.521E-06
6421.814,5.2756E-06
6424.818,5.3983E-06
6427.788,5.2756E-06
6430.814,5.521E-06
6433.814,5.521E-06
6436.757,5.1529E-06
6439.817,5.521E-06
6443.135,5.1529E-06
6446.134,5.2756E-06
6449.135,5.1529E-06
6452.155,5.1529E-06
6455.444,5.1529E-06
6458.472,5.1529E-06
6461.472,5.1529E-06
6564.809,4.1873E-06
6567.788,4.2121E-06
6570.782,4.1625E-06
6573.785,4.1997E-06
6576.783,4.1873E-06
6579.783,4.1749E-06
6582.787,4.1749E-06
6585.784,4.1873E-06
6588.788,4.1749E-06
6591.786,4.1625E-06
6594.749,4.1997E-06
6597.782,4.1997E-06
6600.787,4.1625E-06
6603.785,4.2369E-06
6606.783,4.2245E-06
6609.785,4.1997E-06
6612.789,4.2121E-06
6615.787,4.1873E-06
6618.784,4.1749E-06
6621.785,4.1873E-06
6625.094,4.1749E-06
6628.111,4.1997E-06
6631.104,4.1625E-06
6634.073,4.1873E-06
6637.080,4.1873E-06
6640.104,4.1625E-06
6643.104,4.1749E-06
6646.105,4.1749E-06
6649.103,4.1749E-06
6652.123,4.1254E-06
6655.107,4.2121E-06
6658.107,4.1501E-06
6661.103,4.1625E-06
6664.109,4.1378E-06
6667.103,4.1749E-06
6670.104,4.1501E-06
6673.108,4.1378E-06
6676.108,4.1625E-06
6679.081,4.1873E-06
6682.109,4.1625E-06
6685.459,4.1501E-06
6688.440,4.1749E-06
6691.441,4.1625E-06
6694.446,4.1749E-06
6697.415,4.1625E-06
6700.424,4.1501E-06
6703.403,4.1749E-06
6706.442,4.1873E-06
6709.421,4.1873E-06
6712.446,4.1006E-06
6715.416,4.1625E-06
6718.389,4.1625E-06
6721.444,4.1749E-06
6724.423,4.1749E-06
6727.385,4.1625E-06
6730.442,4.1749E-06
6733.415,4.1378E-06
6736.422,4.1873E-06
6739.422,4.1749E-06
6742.416,4.113E-06
6745.442,4.1997E-06
6748.425,4.1749E-06
6751.382,4.1501E-06
6754.415,4.1749E-06
6757.422,4.1749E-06
6760.415,4.1625E-06
6763.415,4.1873E-06
6766.418,4.1501E-06
6769.415,4.1873E-06
6772.424,4.1501E-06
6775.420,4.1501E-06
6778.419,4.1254E-06
6781.417,4.1501E-06
6784.415,4.1749E-06
6787.417,4.1501E-06
6790.418,4.1501E-06
6793.416,4.1378E-06
6796.426,4.1378E-06
6799.417,4.1254E-06
6802.416,4.1625E-06
6805.730,4.1625E-06
6808.757,4.1873E-06
6811.736,4.1501E-06
6814.759,4.1378E-06
6817.731,4.1625E-06
6820.739,4.1749E-06
6823.731,4.1625E-06
6826.730,4.1749E-06
6829.735,4.1749E-06
6832.734,4.1749E-06
6835.730,4.1749E-06
6838.731,4.1873E-06
6841.731,4.1749E-06
6844.737,4.1501E-06
6847.728,4.1625E-06
6850.734,4.1749E-06
6853.730,4.1749E-06
6856.731,4.1873E-06
6859.736,4.1501E-06
6862.731,4.1501E-06
6964.753,4.1247E-06
6968.042,4.1297E-06
6971.036,4.1235E-06
6974.025,4.1284E-06
6977.032,4.1321E-06
6980.061,4.1272E-06
6983.053,4.1272E-06
6986.024,4.1334E-06
6989.023,4.1334E-06
6992.023,4.1297E-06
6995.025,4.1346E-06
6998.023,4.1321E-06
7000.991,4.1272E-06
7005.678,4.137E-06
7008.678,4.1334E-06
7011.675,4.1272E-06
7014.670,4.1309E-06
7017.714,4.1383E-06
7020.689,4.1297E-06
7023.678,4.1321E-06
7026.678,4.1334E-06
7029.680,4.1321E-06
7032.677,4.126E-06
7035.677,4.1358E-06
7038.677,4.1334E-06
7041.680,4.126E-06
7044.684,4.1309E-06
7047.677,4.137E-06
7050.678,4.1297E-06
7053.679,4.1309E-06
7056.677,4.1346E-06
7059.678,4.1321E-06
7062.677,4.1284E-06
7065.677,4.1358E-06
7068.686,4.1346E-06
7071.677,4.126E-06
7074.677,4.1309E-06
7077.680,4.1346E-06
7080.676,4.1284E-06
7083.678,4.1247E-06
7086.678,4.1358E-06
7089.680,4.1284E-06
7092.682,4.1284E-06
7095.676,4.1334E-06
7098.678,4.1321E-06
7101.676,4.1223E-06
7104.678,4.1309E-06
7107.679,4.1297E-06
7110.677,4.1223E-06
7113.677,4.1198E-06
7116.656,4.1284E-06
7119.676,4.1235E-06
7122.678,4.1186E-06
7125.651,4.1297E-06
7128.654,4.1297E-06
7131.677,4.121E-06
7134.699,4.2935E-06
7137.655,7.5879E-06
7140.659,1.782E-05
7143.652,2.5869E-05
7146.651,3.2314E-05
7149.651,3.7571E-05
7152.654,4.1916E-05
7155.652,4.5477E-05
7158.650,4.8403E-05
7161.653,5.0804E-05
7164.656,5.2787E-05
7167.651,5.441E-05
7369.641,0.0051933
7372.632,0.0051923
7375.627,0.0051915
7378.717,0.0051906
7381.972,0.0051895
7384.974,0.0051883
7387.972,0.0051873
7390.972,0.0051859
7393.973,0.0051852
7396.972,0.0051835
7399.972,0.0051818
7402.973,0.0051807
7405.973,0.0051792
7408.973,0.0051787
7411.973,0.0051781
7414.972,0.0051771
7417.974,0.0051759
7420.974,0.005175
7423.973,0.0051738
7426.971,0.0051731
7429.972,0.0051716
7432.976,0.0051705
7435.971,0.0051699
7438.973,0.0051684
7441.973,0.0051672
7445.005,0.0051739
7447.972,0.0051787
7450.975,0.0051826
7453.972,0.0051855
7456.973,0.0051868
7459.976,0.0051874
7462.974,0.0051878
7465.974,0.005188
7468.997,0.0051884
7471.975,0.005188
7474.972,0.0051869
7477.972,0.0051864
7480.965,0.0051856
7483.958,0.005185
7486.949,0.0051841
7489.967,0.0051829
7492.944,0.0051819
7495.975,0.0051814
7498.979,0.0051801
7501.989,0.0051786
7504.972,0.0051776
7507.976,0.0051769
7510.972,0.0051756
7513.972,0.005174
7516.978,0.0051724
7519.977,0.0051712
7522.971,0.0051707
7525.972,0.0051694
7528.975,0.0051688
7531.972,0.0051682
7535.000,0.0051668
7537.974,0.0051673
7540.972,0.0051726
7543.972,0.0051769
7546.974,0.0051804
7549.972,0.0051816
7552.972,0.0051832
7555.974,0.0051841
7558.972,0.0051839
7561.972,0.0051842
7564.974,0.0051837
7567.970,0.0051836
7570.971,0.0051828
7573.972,0.0051819
7576.974,0.0051813
7579.972,0.0051804
7582.972,0.0051788
7585.973,0.0051775
7588.972,0.0051767
7591.971,0.0051751
7594.974,0.0051744
7597.972,0.0051731
7600.972,0.0051721
7603.974,0.0051711
7606.972,0.0051701
7609.972,0.0051694
7612.974,0.0051678
7615.971,0.005167
7618.971,0.0051727
7621.972,0.0051781
7624.975,0.0051816
7627.972,0.0051845
7630.972,0.0051858
7633.973,0.0051869
7636.972,0.005188
7639.972,0.0051888
7642.974,0.0051883
7645.972,0.0051884
7648.972,0.0051885
7651.974,0.0051883
7655.021,0.0051878
7658.258,0.0051868
7661.259,0.0051861
7664.260,0.0051858
7667.258,0.0051852
7670.287,0.0051847
7673.258,0.0051834
7676.263,0.0051839
7679.256,0.0051828
7682.258,0.0051828
7685.254,0.0051821
7688.260,0.0051813
7691.258,0.0051805
7694.259,0.0051796
7697.232,0.0051787
7700.239,0.0051766
7703.263,0.0051749
7706.232,0.0051734
7709.236,0.0051724
7712.261,0.0051712
7715.258,0.0051711
7718.199,0.0051706
7721.257,0.00517
7724.237,0.0051696
7727.230,0.0051691
7730.234,0.0051686
7733.231,0.0051682
7736.233,0.0051675
7739.233,0.0051664
7742.200,0.0051697
7745.233,0.005175
7748.241,0.0051789
7751.217,0.0051815
7754.233,0.0051828
7757.226,0.0051831
7760.218,0.005183
7763.212,0.0051824
7766.204,0.005182
7769.260,0.0051815
7772.204,0.0051814
7775.250,0.005181
7778.231,0.005181
7781.231,0.0051799
7784.231,0.0051798
7787.232,0.0051794
7790.202,0.0051787
7793.232,0.0051782
7796.239,0.0051777
7799.232,0.0051777
7802.229,0.0051764
7805.238,0.0051755
7808.205,0.005175
7811.208,0.005174
7814.234,0.0051797
7817.232,0.005185
7820.235,0.0051882
7823.231,0.0051904
7826.233,0.0051922
7829.232,0.0051932
7832.231,0.0051939
7835.230,0.005194
7838.234,0.0051939
7841.231,0.0051939
7844.239,0.0051934
7847.262,0.0051933
7850.231,0.0051924
7853.235,0.0051921
7856.232,0.0051916
7859.231,0.0051904
7862.232,0.0051904
7865.231,0.0051895
7868.211,0.0051889
7871.231,0.0051883
7874.234,0.0051877
7877.208,0.0051869
7880.207,0.0051858
7883.206,0.0051845
7886.207,0.0051836
7889.243,0.0051826
7892.210,0.0051818
7895.205,0.0051812
7898.208,0.0051799
7901.196,0.0051788
7904.206,0.0051778
7907.210,0.005177
7910.235,0.005176
7913.206,0.005175
7916.213,0.005175
7919.238,0.0051812
7922.205,0.0051858
7925.208,0.0051885
7928.206,0.0051911
7931.235,0.0051926
7934.206,0.0051929
7937.205,0.0051933
7940.211,0.0051934
7943.204,0.0051926
7946.208,0.0051918
7949.251,0.0051912
7952.516,0.0051902
7955.544,0.0051897
7958.516,0.0051894
7961.520,0.0051885
7964.519,0.005188
7967.518,0.0051874
7970.542,0.0051866
7973.542,0.0051856
7976.542,0.0051852
7979.516,0.0051847
7982.517,0.0051835
7985.515,0.0051828
7988.528,0.0051812
7991.523,0.0051801
7994.519,0.0051793
7997.523,0.0051793
8000.518,0.0051785
8003.545,0.0051777
8006.571,0.005181
8009.519,0.0051864
8012.553,0.0051911
8015.515,0.0051942
8018.528,0.0051963
8021.540,0.0051976
8024.506,0.0051985
8027.496,0.0051985
8030.489,0.0051976
8033.526,0.0051966
8036.582,0.0051969
8039.858,0.0051967
8042.857,0.0051969
8045.856,0.005196
8048.862,0.0051956
8051.856,0.0051948
8054.859,0.0051938
8057.860,0.0051931
8060.837,0.005192
8063.886,0.0051912
8066.857,0.0051904
8069.859,0.0051896
8072.835,0.0051889
8075.856,0.0051877
8078.833,0.0051867
8081.857,0.0051859
8084.901,0.0051853
8087.833,0.005184
8090.832,0.0051832
8093.858,0.0051825
8096.860,0.0051813
8099.832,0.0051803
8102.857,0.0051793
8105.832,0.0051778
8108.837,0.0051771
8111.834,0.0051759
8114.857,0.0051756
8117.807,0.0051743
8120.835,0.0051732
8123.857,0.0051774
8126.831,0.005183
8129.832,0.0051868
8132.835,0.0051891
8135.831,0.0051911
8138.833,0.0042746
8141.889,0.0034458
8144.833,0.0028139
8147.832,0.0023166
8150.857,0.001917
8153.860,0.0015918
8156.867,0.0013253
8159.858,0.0011056
8162.832,0.00092316
8165.832,0.00077114
8168.833,0.00064427
8171.833,0.00053851
8174.832,0.00044943
8177.832,0.00037545
8180.837,0.00031422
8183.832,0.00026244
8186.837,0.00021999
8189.835,0.00018466
8192.833,0.00015533
8195.831,0.00013067
8198.857,0.00011067
8201.853,9.3616E-05
8204.838,7.9751E-05
8207.835,6.785E-05
8210.831,5.8403E-05
8213.832,5.0427E-05
8216.839,4.3925E-05
8219.832,3.8403E-05
8222.832,3.3127E-05
8225.831,2.9201E-05
8228.837,2.6502E-05
8231.832,2.3557E-05
8234.857,2.0981E-05
8237.834,1.9508E-05
8240.833,1.7545E-05
8243.863,1.6195E-05
8246.857,1.4969E-05
8249.863,1.3619E-05
8252.835,1.3128E-05
8255.834,1.2515E-05
8258.858,1.1901E-05
8261.862,1.1533E-05
8264.859,1.0552E-05
8267.838,1.0061E-05
8271.179,9.6926E-06
8274.156,9.6926E-06
8277.153,8.9564E-06
8280.156,8.5884E-06
8283.181,8.711E-06
8286.152,8.5884E-06
8289.152,8.2203E-06
8292.159,7.8522E-06
8295.153,8.0976E-06
8298.153,7.9749E-06
8301.166,7.4842E-06
8304.153,7.7295E-06
8307.153,7.4842E-06
8310.154,7.3614E-06
8313.153,7.116E-06
8316.157,7.116E-06
8319.154,7.116E-06
8322.153,6.6252E-06
8325.151,6.6252E-06
8328.157,6.8706E-06
8331.156,6.6252E-06
8334.153,6.3799E-06
8337.153,6.6252E-06
8340.157,6.5026E-06
8343.153,6.5026E-06
8346.153,6.3799E-06
8349.156,6.1345E-06
8352.151,6.2572E-06
8355.152,6.1345E-06
8358.159,6.3799E-06
8361.154,6.2572E-06
8364.132,6.2572E-06
8367.156,5.8891E-06
8370.194,5.8891E-06
8373.153,6.0118E-06
8376.154,6.3799E-06
8379.151,5.6437E-06
8382.153,6.0118E-06
8385.153,5.7664E-06
8388.157,5.521E-06
8391.152,5.6437E-06
8396.113,5.7664E-06
8399.160,5.7664E-06
8402.161,5.7664E-06
8405.152,5.8891E-06
8408.191,5.6437E-06
8411.160,5.6437E-06
8414.153,5.3983E-06
8417.151,5.7664E-06
8420.156,5.8891E-06
8423.155,5.6437E-06
8426.152,5.7664E-06
8429.148,5.521E-06
8432.184,5.521E-06
8435.163,5.6437E-06
8438.183,5.3983E-06
8441.161,5.521E-06
8444.167,5.3983E-06
8447.160,5.2756E-06
8450.185,5.2756E-06
8453.158,5.521E-06
8456.159,5.2756E-06
8459.159,5.1529E-06
8462.187,5.1529E-06
8465.190,5.521E-06
8468.174,5.1529E-06
8471.162,5.1529E-06
8573.491,4.2245E-06
8576.476,4.1997E-06
8579.473,4.1749E-06
8582.473,4.1997E-06
8585.477,4.2121E-06
8588.447,4.1997E-06
8591.493,4.1997E-06
8594.497,4.1625E-06
8597.495,4.1625E-06
8600.494,4.1873E-06
8603.499,4.1749E-06
8606.491,4.2121E-06
8609.494,4.1749E-06
8612.502,4.1873E-06
8615.489,4.1873E-06
8618.412,4.2121E-06
8621.470,4.1873E-06
8624.471,4.2121E-06
8627.469,4.2245E-06
8630.468,4.1873E-06
8633.494,4.1997E-06
8636.480,4.1997E-06
8639.476,4.1873E-06
8642.471,4.2121E-06
8645.474,4.1997E-06
8648.474,4.2121E-06
8651.473,4.1749E-06
8654.474,4.1997E-06
8657.474,4.2121E-06
8660.452,4.2121E-06
8663.473,4.1997E-06
8666.472,4.1997E-06
8669.478,4.1873E-06
8672.478,4.2121E-06
8675.476,4.2369E-06
8678.482,4.1873E-06
8681.479,4.1997E-06
8684.390,4.1749E-06
8687.478,4.1997E-06
8690.471,4.1997E-06
8693.786,4.2121E-06
8696.786,4.1749E-06
8699.753,4.2121E-06
8702.787,4.1749E-06
8705.791,4.1997E-06
8708.791,4.1997E-06
8711.786,4.1749E-06
8714.791,4.1625E-06
8717.737,4.2121E-06
8720.785,4.1873E-06
8723.788,4.2121E-06
8726.791,4.2121E-06
8729.787,4.2121E-06
8732.795,4.1749E-06
8735.752,4.2121E-06
8738.786,4.1873E-06
8741.786,4.1873E-06
8744.755,4.1873E-06
8747.786,4.1873E-06
8750.787,4.1873E-06
8754.130,4.2121E-06
8757.133,4.2121E-06
8760.102,4.2245E-06
8763.133,4.1749E-06
8766.107,4.1997E-06
8769.119,4.1749E-06
8772.114,4.1873E-06
8775.107,4.1873E-06
8778.108,4.1625E-06
8781.136,4.1749E-06
8784.135,4.1749E-06
8787.133,4.1873E-06
8790.108,4.1625E-06
8793.073,4.1873E-06
8796.114,4.1873E-06
8799.111,4.1625E-06
8802.108,4.1873E-06
8805.133,4.2245E-06
8808.048,4.1873E-06
8811.403,4.1997E-06
8814.474,4.1625E-06
8817.444,4.2121E-06
8820.431,4.1749E-06
8823.412,4.1873E-06
8826.449,4.2121E-06
8829.446,4.1873E-06
8832.444,4.1873E-06
8835.445,4.1873E-06
8838.450,4.1873E-06
8841.444,4.1873E-06
8844.457,4.2245E-06
8847.441,4.1749E-06
8850.444,4.2121E-06
8853.449,4.1873E-06
8856.418,4.1997E-06
8859.413,4.1873E-06
8862.417,4.1997E-06
8865.444,4.1873E-06
8868.450,4.1997E-06
8871.389,4.1749E-06
8973.433,4.1334E-06
8976.414,4.137E-06
8979.415,4.1346E-06
8982.380,4.1334E-06
8985.411,4.142E-06
8988.396,4.1383E-06
8991.414,4.1284E-06
8994.414,4.1383E-06
8997.417,4.1407E-06
9000.413,4.1321E-06
9003.419,4.1334E-06
9006.417,4.1444E-06
9009.414,4.1358E-06
9012.396,4.1321E-06
9015.417,4.1383E-06
9018.423,4.1395E-06
9021.415,4.1334E-06
9024.415,4.1358E-06
9027.415,4.1444E-06
9030.354,4.137E-06
9033.414,4.1334E-06
9036.401,4.1457E-06
9039.419,4.1383E-06
9042.396,4.1346E-06
9045.388,4.1444E-06
9048.396,4.142E-06
9051.405,4.137E-06
9054.418,4.1407E-06
9057.385,4.1457E-06
9060.401,4.142E-06
9063.392,4.1395E-06
9066.420,4.1457E-06
9069.419,4.142E-06
9072.392,4.137E-06
9075.420,4.142E-06
9078.399,4.1457E-06
9081.394,4.1383E-06
9084.337,4.1432E-06
9087.397,4.1457E-06
9090.328,4.1407E-06
9093.363,4.1383E-06
9096.393,4.1457E-06
9099.398,4.1395E-06
9102.413,4.1383E-06
9105.393,4.142E-06
9108.389,4.1395E-06
9111.388,4.1358E-06
9114.379,4.1346E-06
9117.371,4.1407E-06
9120.363,4.1321E-06
9123.395,4.1321E-06
9126.395,4.1346E-06
9129.397,4.1321E-06
9132.369,4.1235E-06
9135.397,4.1321E-06
9138.380,4.1272E-06
9141.393,4.121E-06
9144.391,4.9526E-06
9147.418,1.201E-05
9150.392,2.1352E-05
9153.392,2.868E-05
9156.401,3.4594E-05
9159.392,3.9452E-05
9162.394,4.3466E-05
9165.362,4.6748E-05
9168.357,4.9441E-05
9171.360,5.1666E-05
9174.385,5.3491E-05
9378.361,0.0051931
9381.340,0.0051927
9384.307,0.0051926
9387.366,0.0051921
9390.307,0.0051915
9393.308,0.0051907
9396.348,0.0051899
9399.344,0.0051894
9402.338,0.0051884
9405.308,0.0051878
9408.335,0.0051868
9411.341,0.0051857
9414.339,0.0051845
9417.350,0.0051832
9420.351,0.0051821
9423.338,0.0051813
9426.340,0.0051803
9429.341,0.0051794
9432.341,0.0051788
9435.343,0.0051774
9438.342,0.0051763
9441.340,0.005175
9444.348,0.0051737
9447.308,0.0051726
9450.340,0.0051758
9453.341,0.0051808
9456.337,0.0051846
9459.340,0.0051863
9462.340,0.0051873
9465.339,0.005188
9468.347,0.0051882
9471.681,0.0051893
9474.655,0.0051884
9477.654,0.0051878
9480.655,0.0051872
9483.654,0.0051869
9486.676,0.0051857
9489.651,0.005185
9492.650,0.0051842
9495.687,0.0051837
9498.680,0.0051828
9501.658,0.0051821
9504.655,0.0051813
9507.654,0.0051804
9510.662,0.0051801
9513.656,0.0051793
9516.629,0.0051782
9519.655,0.0051771
9522.654,0.0051759
9525.657,0.005175
9528.655,0.0051737
9531.658,0.005178
9534.654,0.0051829
9537.659,0.0051863
9540.664,0.005189
9543.654,0.0051906
9546.657,0.0051911
9549.628,0.0051913
9552.655,0.0051915
9555.657,0.0051909
9558.662,0.0051904
9561.654,0.0051899
9564.629,0.0051894
9567.625,0.005188
9570.654,0.0051873
9573.654,0.0051863
9576.654,0.0051859
9579.626,0.0051845
9582.655,0.0051831
9585.624,0.005182
9588.660,0.0051814
9591.654,0.0051796
9594.656,0.0051786
9597.660,0.0051777
9600.658,0.0051763
9603.656,0.0051751
9606.662,0.0051742
9609.658,0.0051731
9612.635,0.0051717
9615.664,0.0051715
9618.654,0.0051706
9621.654,0.0051739
9624.655,0.0051796
9627.622,0.0051837
9630.630,0.0051861
9633.629,0.0051879
9636.633,0.0051897
9639.633,0.0051897
9642.596,0.0051901
9645.596,0.0051897
9648.658,0.0051899
9651.631,0.0051897
9654.661,0.005189
9657.637,0.0051883
9660.635,0.0051874
9663.631,0.0051869
9666.628,0.0051858
9669.627,0.0051848
9672.628,0.0051835
9675.630,0.0051825
9679.002,0.0051812
9682.000,0.0051792
9685.023,0.0051776
9687.994,0.0051763
9691.002,0.005175
9694.003,0.005175
9697.006,0.0051747
9700.007,0.0051788
9702.991,0.0051841
9705.993,0.0051883
9708.971,0.0051907
9711.994,0.0051923
9714.993,0.0051934
9718.001,0.0051943
9720.998,0.0051944
9723.995,0.0051939
9726.992,0.0051939
9729.994,0.0051936
9732.992,0.0051936
9735.993,0.0051928
9739.280,0.0051918
9742.283,0.0051911
9745.291,0.0051906
9748.292,0.0051897
9751.258,0.005189
9754.254,0.0051884
9757.265,0.0051873
9760.292,0.0051863
9763.291,0.0051856
9766.287,0.0051858
9769.287,0.0051856
9772.294,0.0051846
9775.287,0.0051834
9778.287,0.0051813
9781.291,0.0051805
9784.290,0.0051796
9787.288,0.0051781
9790.287,0.0051772
9793.287,0.0051756
9796.292,0.0051751
9799.313,0.0051734
9802.287,0.0051724
9805.287,0.0051728
9808.294,0.0051801
9811.291,0.0051841
9814.287,0.005187
9817.294,0.0051899
9820.295,0.0051915
9823.287,0.0051932
9826.287,0.0051937
9829.296,0.0051939
9832.288,0.005194
9835.286,0.0051932
9838.288,0.0051929
9841.261,0.0051927
9844.272,0.005192
9847.257,0.0051906
9850.288,0.0051897
9853.287,0.005189
9856.292,0.005188
9859.291,0.0051869
9862.254,0.0051864
9865.287,0.0051856
9868.281,0.0051847
9871.289,0.0051836
9874.289,0.0051834
9877.286,0.0051825
9880.261,0.0051808
9883.287,0.0051793
9886.259,0.0051771
9889.261,0.0051771
9892.272,0.0051775
9895.228,0.0051761
9898.261,0.0051755
9901.263,0.0051749
9904.603,0.0051745
9907.602,0.0051732
9910.572,0.0051728
9913.600,0.0051796
9916.607,0.0051845
9919.628,0.0051875
9922.609,0.0051897
9925.566,0.0051912
9928.569,0.0051918
9931.594,0.005192
9934.591,0.0051918
9937.593,0.0051911
9940.601,0.00519
9943.595,0.0051894
9946.571,0.0051896
9949.606,0.0051891
9952.603,0.0051883
9955.538,0.0051872
9958.608,0.0051867
9961.605,0.0051857
9964.609,0.0051853
9967.616,0.0051846
9970.576,0.005184
9973.603,0.0051831
9976.602,0.0051823
9980.002,0.0051809
9983.001,0.0051801
9986.239,0.0051791
9989.231,0.0051777
9992.235,0.0051775
9995.269,0.0051761
9998.262,0.0051751
10001.275,0.0051738
10004.306,0.0051727
10007.261,0.0051721
10010.261,0.0051711
10013.233,0.0051709
10016.261,0.0051742
10019.235,0.0051798
10022.267,0.0051837
10025.265,0.0051859
10028.266,0.0051877
10031.238,0.0051895
10034.211,0.0051901
10037.233,0.0051906
10040.253,0.0051904
10043.252,0.0051906
10046.256,0.0051909
10049.252,0.0051905
10052.231,0.0051901
10055.230,0.0051897
10058.229,0.0051886
10061.205,0.0051884
10064.227,0.0051879
10067.228,0.0051867
10070.202,0.0051848
10073.227,0.0051842
10076.234,0.0051843
10079.225,0.0051829
10082.226,0.0051829
10085.240,0.0051815
10088.231,0.0051804
10091.235,0.0051803
10094.235,0.0051796
10097.232,0.0051789
10100.241,0.0051774
10103.236,0.0051761
10106.235,0.0051753
10109.235,0.0051747
10112.235,0.0051737
10115.204,0.0051732
10118.245,0.0051718
10121.235,0.005172
10124.240,0.0051705
10127.239,0.0051753
10130.202,0.0051796
10133.237,0.0051832
10136.240,0.005185
10139.235,0.0051878
10142.235,0.0051891
10145.242,0.0051906
10148.241,0.0046571
10151.235,0.003727
10154.235,0.0030312
10157.247,0.0024886
10160.560,0.0020133
10163.576,0.0016706
10166.607,0.0013903
10169.578,0.0011592
10172.557,0.00096708
10175.550,0.00080844
10178.520,0.00067531
10181.576,0.00056452
10184.550,0.00047152
10187.555,0.00039373
10190.554,0.00032931
10193.549,0.0002757
10196.561,0.00023091
10199.557,0.00019349
10202.549,0.00016269
10205.553,0.00013693
10208.576,0.00011533
10211.552,9.791E-05
10214.552,8.3432E-05
10217.575,7.1285E-05
10220.561,6.1102E-05
10223.517,5.2268E-05
10226.554,4.552E-05
10229.552,3.9385E-05
10232.553,3.4845E-05
10235.566,3.0673E-05
10238.522,2.7361E-05
10241.518,2.4048E-05
10244.549,2.1717E-05
10247.545,1.9999E-05
10250.532,1.8404E-05
10253.528,1.6318E-05
10256.519,1.5459E-05
10259.578,1.4232E-05
10262.576,1.3619E-05
10265.576,1.2637E-05
10268.621,1.2147E-05
10271.920,1.1288E-05
10274.914,1.092E-05
10278.079,1.0183E-05
10281.236,1.0183E-05
10284.179,9.8154E-06
10287.209,9.6926E-06
10290.214,8.9564E-06
10293.210,8.711E-06
10296.209,8.8338E-06
10299.214,8.2203E-06
10302.212,8.2203E-06
10305.210,8.0976E-06
10308.218,7.9749E-06
10311.216,7.3614E-06
10314.210,7.7295E-06
10317.176,7.4842E-06
10320.208,6.9934E-06
10323.209,7.116E-06
10326.209,7.7295E-06
10329.209,7.116E-06
10332.182,7.2388E-06
10335.208,6.8706E-06
10338.235,6.8706E-06
10341.212,6.5026E-06
10344.209,6.5026E-06
10347.183,6.5026E-06
10350.213,6.5026E-06
10353.209,6.6252E-06
10356.187,6.3799E-06
10359.216,6.6252E-06
10362.210,6.0118E-06
10365.213,6.3799E-06
10368.232,6.2572E-06
10371.210,6.0118E-06
10374.201,6.1345E-06
10377.193,6.0118E-06
10380.152,5.7664E-06
10383.184,5.7664E-06
10386.181,5.7664E-06
10389.134,6.2572E-06
10392.155,5.7664E-06
10395.123,6.2572E-06
10398.213,6.0118E-06
10401.222,5.6437E-06
10404.187,5.8891E-06
10407.190,6.0118E-06
10410.182,5.7664E-06
10413.177,5.3983E-06
10416.183,5.6437E-06
10419.209,5.8891E-06
10422.173,5.6437E-06
10425.152,5.521E-06
10428.157,5.6437E-06
10431.155,5.7664E-06
10434.153,5.521E-06
10437.494,5.6437E-06
10440.496,5.7664E-06
10443.491,5.521E-06
10446.493,5.3983E-06
10449.495,5.3983E-06
10452.497,5.3983E-06
10455.492,5.2756E-06
10458.492,5.8891E-06
10461.495,5.3983E-06
10464.492,5.2756E-06
10467.489,5.3983E-06
10470.493,5.521E-06
10473.491,5.6437E-06
10476.497,5.0302E-06
10479.495,5.2756E-06
10482.493,5.0302E-06
10583.169,4.2245E-06
10586.125,4.2245E-06
10589.124,4.2121E-06
10592.125,4.1997E-06
10595.151,4.2245E-06
10598.150,4.2245E-06
10601.146,4.2245E-06
10604.130,4.2245E-06
10607.128,4.2245E-06
10610.125,4.2121E-06
10613.151,4.1997E-06
10616.153,4.2121E-06
10619.125,4.2245E-06
10622.151,4.1873E-06
10625.125,4.1997E-06
10628.130,4.2245E-06
10631.127,4.2121E-06
10634.165,4.1997E-06
10637.128,4.1997E-06
10640.124,4.2121E-06
10643.127,4.1997E-06
10646.123,4.2121E-06
10649.125,4.1873E-06
10652.163,4.2369E-06
10655.129,4.1997E-06
10658.124,4.1997E-06
10661.185,4.2121E-06
10664.464,4.2121E-06
10667.499,4.2369E-06
10670.467,4.1873E-06
10673.464,4.2245E-06
10676.471,4.2245E-06
10679.467,4.1997E-06
10682.465,4.1873E-06
10685.464,4.2121E-06
10688.469,4.2369E-06
10691.468,4.1997E-06
10694.463,4.1749E-06
10697.464,4.1997E-06
10700.489,4.1749E-06
10703.499,4.1873E-06
10706.465,4.2121E-06
10709.465,4.2369E-06
10712.465,4.1997E-06
10715.465,4.2369E-06
10718.469,4.2245E-06
10721.468,4.1997E-06
10724.443,4.1873E-06
10727.468,4.1873E-06
10730.444,4.2121E-06
10733.444,4.2245E-06
10736.467,4.2121E-06
10739.440,4.1997E-06
10742.441,4.2121E-06
10745.443,4.1873E-06
10748.472,4.1873E-06
10751.778,4.1997E-06
10754.779,4.1997E-06
10757.806,4.2369E-06
10760.778,4.2121E-06
10763.804,4.2245E-06
10766.777,4.2121E-06
10769.776,4.1749E-06
10772.785,4.1997E-06
10775.778,4.2121E-06
10778.777,4.2245E-06
10781.777,4.1873E-06
10784.781,4.1997E-06
10787.778,4.2121E-06
10790.778,4.1997E-06
10793.778,4.1873E-06
10796.786,4.2245E-06
10799.817,4.1873E-06
10802.808,4.1873E-06
10805.807,4.1997E-06
10808.777,4.2369E-06
10811.780,4.2121E-06
10814.776,4.1997E-06
10817.834,4.1997E-06
10820.785,4.1997E-06
10823.803,4.2245E-06
10826.807,4.2121E-06
10829.776,4.2245E-06
10832.780,4.1997E-06
10835.808,4.2121E-06
10838.779,4.1749E-06
10841.778,4.1997E-06
10844.759,4.1749E-06
10847.778,4.2121E-06
10850.799,4.1873E-06
10853.779,4.1873E-06
10856.776,4.1997E-06
10859.780,4.1749E-06
10862.777,4.1873E-06
10865.777,4.1997E-06
10868.755,4.1997E-06
10871.777,4.1997E-06
10874.778,4.1997E-06
10877.776,4.1749E-06
10880.780,4.2121E-06
10983.082,4.142E-06
10986.070,4.1494E-06
10989.068,4.1457E-06
10992.067,4.1457E-06
10995.066,4.1506E-06
10998.069,4.1506E-06
11001.071,4.1432E-06
11004.080,4.1457E-06
11007.069,4.1518E-06
11010.067,4.1469E-06
11013.067,4.1457E-06
11016.071,4.1518E-06
11019.072,4.1481E-06
11022.068,4.142E-06
11025.069,4.1506E-06
11028.073,4.1543E-06
11031.067,4.1469E-06
11034.072,4.1531E-06
11037.410,4.1506E-06
11040.411,4.1494E-06
11043.412,4.1494E-06
11046.412,4.1543E-06
11049.410,4.1494E-06
11052.392,4.1457E-06
11055.416,4.1568E-06
11058.384,4.1531E-06
11061.409,4.1457E-06
11064.412,4.1531E-06
11067.412,4.1543E-06
11070.410,4.1481E-06
11073.413,4.1481E-06
11076.427,4.1531E-06
11079.411,4.1494E-06
11082.411,4.142E-06
11085.411,4.1506E-06
11088.387,4.1506E-06
11091.385,4.137E-06
11094.412,4.1457E-06
11097.419,4.1469E-06
11100.407,4.1432E-06
11103.409,4.1432E-06
11106.410,4.1494E-06
11109.388,4.1457E-06
11112.386,4.1383E-06
11115.382,4.1481E-06
11118.385,4.1506E-06
11121.384,4.1395E-06
11124.396,4.1432E-06
11127.388,4.1531E-06
11130.384,4.142E-06
11133.386,4.1444E-06
11136.388,4.1518E-06
11139.386,4.1469E-06
11142.412,4.1469E-06
11145.385,4.1506E-06
11148.403,4.1531E-06
11151.361,4.1457E-06
11154.354,4.6533E-06
11157.458,1.028E-05
11160.724,2.0972E-05
11163.752,2.8378E-05
11166.727,3.4349E-05
11169.725,3.9246E-05
11172.730,4.3296E-05
11175.727,4.661E-05
11178.699,4.9329E-05
11181.730,5.1574E-05
11184.697,5.3416E-05
11389.068,0.0051884
11391.994,0.0051878
11395.021,0.0051873
11398.021,0.0051873
11401.000,0.0051872
11404.001,0.0051874
11407.022,0.0051867
11410.020,0.0051848
11413.018,0.0051835
11415.994,0.0051825
11419.019,0.0051813
11421.996,0.0051801
11424.994,0.0051787
11427.999,0.0051775
11431.025,0.0051765
11434.016,0.0051809
11436.994,0.0051867
11439.994,0.0051906
11442.993,0.0051931
11445.995,0.0051948
11448.994,0.0051965
11451.999,0.0051967
11454.994,0.0051971
11457.993,0.0051971
11460.994,0.0051967
11463.994,0.0051961
11466.971,0.0051953
11469.997,0.0051945
11472.998,0.0051934
11476.029,0.0051926
11478.996,0.0051913
11481.996,0.005191
11484.993,0.005189
11487.994,0.0051883
11490.993,0.0051872
11493.995,0.0051861
11496.994,0.0051851
11500.001,0.0051837
11502.994,0.0051831
11505.994,0.0051831
11508.994,0.0051814
11511.994,0.0051788
11514.994,0.0051777
11517.998,0.0051767
11520.995,0.0051761
11524.006,0.0051754
11526.998,0.0051739
11529.997,0.0051723
11533.030,0.0051713
11536.332,0.0051695
11539.332,0.0051764
11542.306,0.0051807
11545.331,0.0051841
11548.315,0.0051863
11551.332,0.0051874
11554.332,0.0051879
11557.306,0.0051889
11560.332,0.0051879
11563.308,0.0051878
11566.330,0.0051869
11569.306,0.0051859
11572.341,0.0051856
11575.362,0.0051845
11578.308,0.0051836
11581.306,0.0051826
11584.308,0.0051818
11587.304,0.0051808
11590.310,0.0051798
11593.308,0.0051785
11596.343,0.0051776
11599.306,0.0051761
11602.307,0.0051758
11605.306,0.0051745
11608.305,0.0051737
11611.308,0.0051726
11614.306,0.0051736
11617.275,0.0051794
11620.316,0.005184
11623.307,0.0051869
11626.307,0.0051891
11629.305,0.0051904
11632.305,0.0051916
11635.335,0.0051923
11638.304,0.0051928
11641.308,0.0051927
11644.313,0.0051923
11647.305,0.0051918
11650.339,0.0051916
11653.968,0.005191
11656.971,0.0051901
11659.968,0.0051888
11662.966,0.0051885
11665.968,0.0051879
11668.968,0.005187
11671.968,0.0051868
11674.970,0.0051862
11677.968,0.0051856
11680.977,0.0051846
11683.969,0.0051839
11686.968,0.0051823
11689.994,0.0051816
11692.974,0.0051805
11695.969,0.0051797
11698.998,0.0051783
11701.998,0.0051778
11704.971,0.0051769
11707.967,0.0051759
11710.968,0.0051748
11713.968,0.0051736
11716.982,0.0051723
11720.305,0.0051727
11723.280,0.0051783
11726.305,0.0051829
11729.305,0.0051856
11732.284,0.005188
11735.306,0.0051888
11738.305,0.0051893
11741.281,0.0051894
11744.279,0.0051902
11747.304,0.0051895
11750.309,0.0051896
11753.623,0.0051891
11756.633,0.0051886
11759.623,0.0051878
11762.619,0.0051874
11765.621,0.0051872
11768.623,0.0051863
11771.620,0.0051848
11774.621,0.0051841
11777.679,0.0051837
11780.625,0.005183
11783.636,0.0051819
11786.970,0.0051801
11789.967,0.0051785
11792.967,0.0051781
11795.970,0.0051775
11798.967,0.0051766
11801.966,0.0051754
11804.970,0.0051749
11807.968,0.0051739
11810.968,0.0051731
11813.967,0.0051731
11816.965,0.0051729
11820.290,0.0051713
11823.293,0.0051706
11826.621,0.0051774
11829.621,0.0051823
11832.623,0.0051858
11835.620,0.0051879
11838.620,0.0051897
11841.623,0.005191
11844.625,0.0051922
11847.620,0.0051927
11850.624,0.0051937
11853.593,0.0051931
11856.621,0.0051926
11859.620,0.005192
11862.624,0.0051913
11865.625,0.005191
11868.681,0.0051909
11871.593,0.0051906
11874.620,0.0051894
11877.620,0.0051889
11880.623,0.0051877
11883.616,0.0051867
11886.967,0.0051856
11889.969,0.0051845
11892.967,0.0051837
11895.967,0.0051828
11898.970,0.0051816
11901.968,0.0051803
11904.970,0.0051798
11907.972,0.0051796
11910.969,0.0051786
11913.976,0.0051847
11916.997,0.00519
11920.256,0.0051936
11923.254,0.005196
11926.253,0.005197
11929.280,0.0051987
11932.258,0.0051983
11935.252,0.0051986
11938.253,0.005198
11941.254,0.0051977
11944.253,0.005197
11947.258,0.005197
11950.224,0.005195
11953.253,0.0051943
11956.259,0.0051938
11959.260,0.0051917
11962.253,0.0051915
11965.253,0.0051902
11968.288,0.0051895
11971.253,0.0051885
11974.253,0.005188
11977.254,0.0051879
11980.258,0.0051862
11983.253,0.0051863
11986.254,0.0051855
11989.279,0.0051842
11992.254,0.0051839
11995.254,0.005183
11998.255,0.0051816
12001.253,0.0051798
12004.258,0.0051798
12007.255,0.0051798
12010.254,0.0051785
12013.252,0.0051778
12016.256,0.005178
12019.253,0.0051816
12022.254,0.005187
12025.253,0.0051906
12028.257,0.0051929
12031.284,0.0051948
12034.344,0.0051961
12037.254,0.0051972
12040.256,0.0051978
12043.254,0.005198
12046.256,0.0051976
12049.253,0.005197
12052.235,0.0051961
12055.255,0.0051956
12058.253,0.0051944
12061.254,0.0051933
12064.227,0.0051927
12067.252,0.0051917
12070.251,0.0051905
12073.253,0.0051897
12076.233,0.0051888
12079.253,0.0051878
12082.230,0.0051868
12085.252,0.0051861
12088.228,0.0051852
12091.226,0.0051842
12094.227,0.0051839
12097.227,0.0051825
12100.228,0.0051818
12103.568,0.0051802
12106.567,0.0051802
12109.571,0.0051796
12112.569,0.0051787
12115.569,0.0051786
12118.575,0.0051775
12121.567,0.005177
12124.573,0.0051759
12127.571,0.0051753
12130.571,0.0051749
12133.551,0.0051745
12136.969,0.0051743
12139.967,0.0051736
12142.967,0.0051754
12145.882,0.0051814
12148.885,0.0051866
12151.966,0.0051897
12154.970,0.005192
12157.910,0.0050301
12160.967,0.0039834
12163.971,0.0032271
12166.880,0.0026428
12170.227,0.0021338
12173.255,0.0017695
12176.257,0.0014714
12179.255,0.0012261
12182.254,0.0010232
12185.276,0.00085494
12188.234,0.00071433
12191.229,0.00059617
12194.231,0.00049863
12197.226,0.00041667
12200.210,0.00034845
12203.568,0.00028576
12206.543,0.00023938
12209.569,0.00020073
12212.576,0.00016858
12215.543,0.00014147
12218.593,0.00011987
12221.594,0.00010147
12224.568,8.5886E-05
12227.569,7.3494E-05
12230.570,6.3065E-05
12233.580,5.4354E-05
12236.887,4.5765E-05
12239.883,4.0244E-05
12242.883,3.5336E-05
12245.880,3.1287E-05
12248.880,2.7238E-05
12251.910,2.4539E-05
12254.880,2.233E-05
12257.883,1.9876E-05
12260.885,1.8281E-05
12263.910,1.6932E-05
12266.987,1.5214E-05
12270.230,1.4232E-05
12273.253,1.3374E-05
12276.234,1.276E-05
12279.226,1.1901E-05
12282.227,1.1165E-05
12285.253,1.092E-05
12288.227,1.0552E-05
12291.253,1.0061E-05
12294.217,9.8154E-06
12297.227,9.4472E-06
12300.236,9.3246E-06
12303.598,8.5884E-06
12306.543,8.5884E-06
12309.570,8.0976E-06
12312.543,8.0976E-06
12315.542,7.8522E-06
12318.542,7.7295E-06
12321.547,7.7295E-06
12324.577,7.3614E-06
12327.544,7.4842E-06
12330.544,7.4842E-06
12333.517,6.9934E-06
12336.855,7.116E-06
12339.857,6.9934E-06
12342.890,6.9934E-06
12345.828,6.748E-06
12348.862,6.748E-06
12352.201,6.9934E-06
12355.203,6.6252E-06
12358.201,6.2572E-06
12361.201,6.5026E-06
12364.208,6.5026E-06
12367.199,6.0118E-06
12370.202,6.5026E-06
12373.203,6.2572E-06
12376.203,6.3799E-06
12379.202,6.1345E-06
12382.201,6.3799E-06
12385.200,6.1345E-06
12388.205,6.0118E-06
12391.201,6.0118E-06
12394.203,6.0118E-06
12397.201,5.8891E-06
12400.246,5.8891E-06
12403.205,5.7664E-06
12406.201,6.1345E-06
12409.201,5.8891E-06
12412.180,6.0118E-06
12415.201,6.0118E-06
12418.200,5.6437E-06
12421.176,5.6437E-06
12424.202,5.3983E-06
12427.201,5.6437E-06
12430.201,5.521E-06
12433.205,5.8891E-06
12436.183,5.6437E-06
12439.201,5.7664E-06
12442.175,5.8891E-06
12445.175,5.6437E-06
12448.176,5.6437E-06
12451.206,5.8891E-06
12454.201,5.521E-06
12457.178,5.6437E-06
12460.180,5.3983E-06
12463.201,5.521E-06
12466.176,5.3983E-06
12469.175,5.6437E-06
12472.175,5.521E-06
12475.181,5.521E-06
12478.201,5.3983E-06
12481.173,5.2756E-06
12484.181,5.3983E-06
12487.178,5.2756E-06
12490.175,5.521E-06
12493.201,5.3983E-06
12593.907,4.2245E-06
12597.188,4.2616E-06
12600.176,4.1873E-06
12603.144,4.2369E-06
12606.217,4.2369E-06
12609.176,4.2245E-06
12612.161,4.2369E-06
12615.213,4.2121E-06
12618.200,4.2121E-06
12621.151,4.2245E-06
12624.185,4.2369E-06
12627.206,4.2121E-06
12630.208,4.2245E-06
12633.206,4.2245E-06
12636.184,4.1997E-06
12639.207,4.2245E-06
12642.211,4.1625E-06
12645.181,4.2121E-06
12648.185,4.2369E-06
12651.180,4.1997E-06
12654.210,4.1873E-06
12657.206,4.2121E-06
12660.173,4.2121E-06
12663.201,4.2245E-06
12666.171,4.1873E-06
12669.186,4.2493E-06
12672.147,4.1873E-06
12675.171,4.2245E-06
12678.172,4.2493E-06
12681.176,4.1873E-06
12684.176,4.2121E-06
12687.140,4.1997E-06
12690.168,4.1873E-06
12693.171,4.2245E-06
12696.174,4.1873E-06
12699.170,4.1997E-06
12702.140,4.1997E-06
12705.173,4.2121E-06
12708.174,4.2369E-06
12711.172,4.1997E-06
12714.225,4.2245E-06
12717.191,4.2245E-06
12720.181,4.2121E-06
12723.172,4.1873E-06
12726.179,4.2121E-06
12729.181,4.2493E-06
12732.184,4.2245E-06
12735.150,4.1997E-06
12738.181,4.2121E-06
12741.180,4.1873E-06
12744.185,4.1749E-06
12747.182,4.2121E-06
12750.149,4.2121E-06
12753.190,4.2121E-06
12756.186,4.2245E-06
12759.180,4.1997E-06
12762.185,4.2121E-06
12765.186,4.1873E-06
12768.520,4.2616E-06
12771.521,4.1997E-06
12774.520,4.1873E-06
12777.522,4.2121E-06
12780.504,4.1873E-06
12783.522,4.2245E-06
12786.524,4.1997E-06
12789.521,4.2121E-06
12792.495,4.2121E-06
12795.499,4.1997E-06
12798.489,4.1625E-06
12801.494,4.1997E-06
12804.501,4.2121E-06
12807.500,4.1997E-06
12810.498,4.1997E-06
12813.462,4.1873E-06
12816.495,4.1997E-06
12819.501,4.2121E-06
12822.495,4.1997E-06
12825.462,4.1873E-06
12828.468,4.2245E-06
12831.495,4.1997E-06
12834.545,4.1873E-06
12837.495,4.2245E-06
12840.495,4.1873E-06
12843.490,4.1378E-06
12846.496,4.2121E-06
12849.496,4.1873E-06
12852.505,4.1873E-06
12855.502,4.2369E-06
12858.460,4.2121E-06
12861.480,4.2121E-06
12864.472,4.2121E-06
12867.521,4.1997E-06
12870.507,4.1873E-06
12873.505,4.1873E-06
12876.472,4.2121E-06
12879.499,4.2245E-06
12882.496,4.2121E-06
12885.495,4.2369E-06
12888.494,4.1873E-06
12891.462,4.2245E-06
12993.815,4.1555E-06
12996.812,4.1617E-06
12999.804,4.1543E-06
13002.781,4.1531E-06
13005.804,4.1617E-06
13008.807,4.1605E-06
13011.832,4.1531E-06
13014.803,4.1592E-06
13017.803,4.1605E-06
13020.783,4.1568E-06
13023.802,4.1568E-06
13026.806,4.1617E-06
13029.805,4.158E-06
13032.801,4.1531E-06
13035.810,4.158E-06
13038.803,4.1568E-06
13041.802,4.1518E-06
13044.812,4.1592E-06
13047.803,4.1555E-06
13050.787,4.1518E-06
13054.469,4.1568E-06
13057.464,4.1592E-06
13060.436,4.1543E-06
13063.463,4.1555E-06
13066.464,4.1605E-06
13069.472,4.1543E-06
13072.466,4.1531E-06
13075.464,4.1617E-06
13078.464,4.1617E-06
13081.438,4.1568E-06
13084.435,4.1617E-06
13087.440,4.1654E-06
13090.439,4.1555E-06
13093.433,4.1592E-06
13096.462,4.1678E-06
13099.434,4.1605E-06
13102.435,4.158E-06
13105.432,4.1666E-06
13108.409,4.1654E-06
13111.430,4.1592E-06
13114.432,4.1617E-06
13117.431,4.1654E-06
13120.432,4.158E-06
13123.432,4.1605E-06
13126.432,4.1678E-06
13129.434,4.1642E-06
13132.413,4.1617E-06
13135.432,4.1691E-06
13138.465,4.1654E-06
13141.431,4.1617E-06
13144.432,4.1654E-06
13147.434,4.1691E-06
13150.430,4.1629E-06
13153.405,4.1629E-06
13156.410,4.1715E-06
13159.432,4.1642E-06
13162.432,4.4524E-06
13165.403,8.6388E-06
13168.401,1.8808E-05
13171.403,2.6648E-05
13174.410,3.2947E-05
13177.403,3.8091E-05
13180.443,4.2341E-05
13183.427,4.5827E-05
13186.403,4.8688E-05
13189.434,5.1037E-05
13192.405,5.2976E-05
13195.403,5.4564E-05
13397.722,0.0051902
13400.697,0.0051915
13403.702,0.0051928
13406.700,0.0051932
13409.695,0.005194
13412.703,0.0051936
13415.697,0.0051926
13418.697,0.0051927
13421.699,0.0051921
13424.697,0.0051911
13427.697,0.0051905
13430.699,0.0051886
13433.698,0.0051877
13436.702,0.0051864
13439.699,0.0051853
13442.698,0.0051842
13445.697,0.0051832
13448.697,0.005182
13451.734,0.005181
13454.696,0.0051794
13457.703,0.0051791
13460.703,0.0051785
13463.697,0.0051775
13466.698,0.0051766
13469.693,0.0051756
13472.697,0.005174
13475.698,0.0051721
13478.699,0.0051781
13481.699,0.0051829
13484.702,0.0051863
13487.699,0.005188
13490.698,0.0051897
13493.697,0.0051906
13496.697,0.0051909
13499.704,0.0051911
13502.699,0.0051912
13505.698,0.0051911
13508.678,0.0051901
13511.698,0.0051894
13514.698,0.0051885
13517.698,0.0051875
13520.688,0.0051873
13523.680,0.0051863
13526.670,0.0051858
13529.661,0.005185
13532.711,0.005184
13535.701,0.0051832
13538.640,0.0051824
13541.704,0.0051813
13544.697,0.0051803
13547.700,0.0051788
13550.682,0.0051776
13553.714,0.0051765
13556.675,0.0051754
13559.670,0.0051744
13562.697,0.0051756
13565.699,0.0051815
13568.672,0.0051853
13571.673,0.0051879
13574.735,0.0051894
13578.017,0.0051902
13581.022,0.0051912
13584.019,0.0051912
13587.017,0.0051917
13590.020,0.0051912
13593.019,0.0051907
13596.032,0.0051896
13599.020,0.0051895
13601.991,0.0051886
13605.017,0.005188
13607.991,0.0051869
13611.017,0.0051863
13614.018,0.0051859
13617.026,0.0051853
13619.996,0.0051845
13622.994,0.0051877
13626.016,0.0051928
13628.991,0.0051969
13631.992,0.0051996
13635.017,0.0052012
13638.022,0.0052025
13641.017,0.0052032
13644.000,0.0052031
13647.020,0.0052034
13649.995,0.0052037
13652.994,0.005203
13655.991,0.0052015
13658.991,0.0052008
13661.993,0.0051999
13664.991,0.0051998
13668.016,0.0051991
13670.996,0.0051975
13673.994,0.0051972
13676.992,0.0051964
13680.021,0.0051956
13682.991,0.0051947
13685.992,0.0051928
13688.991,0.005192
13691.998,0.005192
13694.992,0.0051918
13698.017,0.0051913
13700.992,0.0051906
13703.991,0.0051899
13706.992,0.0051891
13710.027,0.005188
13712.991,0.005187
13715.997,0.0051858
13718.995,0.0051841
13721.993,0.0051836
13724.991,0.0051819
13727.991,0.0051815
13730.996,0.0051801
13734.021,0.0051796
13736.991,0.0051778
13739.998,0.0051774
13742.993,0.0051755
13745.991,0.0051749
13749.022,0.0051775
13752.024,0.005183
13754.993,0.0051866
13757.994,0.0051882
13760.994,0.0051905
13764.001,0.0051911
13767.338,0.0051915
13770.329,0.0051915
13773.333,0.0051922
13776.330,0.0051915
13779.332,0.0051915
13782.329,0.0051911
13785.329,0.0051909
13788.312,0.0051902
13791.330,0.0051893
13794.329,0.0051882
13797.332,0.0051875
13800.330,0.0051859
13803.338,0.0051848
13806.304,0.0051841
13809.303,0.0051834
13812.312,0.0051823
13815.306,0.0051812
13818.304,0.0051799
13821.306,0.0051793
13824.330,0.0051785
13827.302,0.0051776
13830.331,0.0051766
13833.300,0.0051758
13836.311,0.0051747
13839.303,0.0051736
13842.304,0.0051733
13845.333,0.0051718
13848.303,0.0051705
13851.338,0.0051701
13854.303,0.0051696
13857.302,0.0051682
13860.313,0.0051729
13863.305,0.0051797
13866.336,0.0051835
13869.304,0.0051869
13872.303,0.0051884
13875.304,0.0051905
13878.303,0.005192
13881.305,0.0051917
13884.310,0.0051918
13887.333,0.0051927
13890.306,0.0051922
13893.303,0.0051918
13896.303,0.0051912
13899.306,0.0051899
13902.304,0.0051885
13905.303,0.0051873
13908.341,0.0051863
13911.305,0.0051864
13914.303,0.0051847
13917.303,0.0051847
13920.303,0.0051837
13923.277,0.0051825
13926.303,0.0051815
13929.333,0.0051807
13932.314,0.0051792
13935.278,0.0051782
13938.306,0.0051771
13941.303,0.0051758
13944.281,0.0051754
13947.308,0.0051742
13950.302,0.0051731
13953.305,0.0051723
13956.313,0.0051715
13959.305,0.0051704
13962.279,0.0051726
13965.305,0.005178
13968.278,0.0051823
13971.334,0.005185
13974.281,0.0051866
13977.277,0.0051873
13980.284,0.0051879
13983.301,0.0051885
13986.277,0.0051882
13989.277,0.005188
13992.308,0.0051877
13995.277,0.0051872
13998.302,0.005187
14001.281,0.0051864
14004.282,0.0051858
14007.279,0.0051851
14010.279,0.0051842
14013.311,0.0051837
14016.331,0.0051829
14019.970,0.0051821
14022.965,0.0051813
14025.965,0.0051807
14028.968,0.0051802
14031.970,0.0051786
14034.970,0.0051775
14037.970,0.0051765
14040.968,0.0051753
14043.968,0.005174
14046.970,0.0051728
14049.954,0.0051724
14052.969,0.0051712
14055.970,0.0051709
14058.968,0.0051697
14061.966,0.0051693
14064.965,0.0051693
14067.968,0.0051684
14070.966,0.0051675
14073.965,0.0051669
14076.967,0.0051701
14079.965,0.0051763
14082.988,0.0051805
14085.968,0.0051831
14088.966,0.0051848
14091.964,0.0051855
14094.970,0.0051857
14097.965,0.0051856
14100.964,0.0051852
14103.969,0.0051841
14106.967,0.0051835
14109.963,0.0051842
14112.962,0.0051832
14115.962,0.0051832
14118.962,0.0051829
14121.962,0.0051824
14124.960,0.0051819
14127.964,0.0051813
14130.962,0.0051807
14133.960,0.0051801
14137.019,0.0051797
14140.314,0.0051787
14143.652,0.005178
14147.029,0.0051772
14150.303,0.0051764
14153.652,0.0051755
14157.026,0.0051747
14160.312,0.0051739
14163.643,0.0051765
14166.949,0.0047245
14169.968,0.0037743
14172.956,0.0030672
14175.953,0.0025175
14178.957,0.0020793
14181.985,0.001724
14184.994,0.0014345
14187.986,0.0011955
14190.981,0.00099812
14193.995,0.00083383
14196.979,0.00069691
14199.995,0.00058268
14203.000,0.00048673
14205.977,0.00040649
14208.962,0.00033999
14211.960,0.00028453
14214.959,0.00023827
14217.959,0.00019962
14220.971,0.00016785
14223.961,0.00014134
14226.960,0.00011926
14229.960,0.0001011
14232.936,8.5886E-05
14236.593,7.0549E-05
14239.586,6.0488E-05
14242.564,5.2145E-05
14245.589,4.552E-05
14248.586,3.9262E-05
14251.585,3.4722E-05
14254.589,3.0428E-05
14257.562,2.6993E-05
14260.569,2.4048E-05
14263.586,2.1717E-05
14266.569,1.9876E-05
14269.568,1.8159E-05
14272.568,1.6564E-05
14275.567,1.5337E-05
14278.591,1.4355E-05
14281.590,1.3005E-05
14284.629,1.2515E-05
14287.593,1.2024E-05
14290.596,1.1288E-05
14293.619,1.092E-05
14296.597,1.0306E-05
14299.997,1.0061E-05
14302.995,9.8154E-06
14305.965,9.4472E-06
14308.965,8.8338E-06
14311.965,8.8338E-06
14314.962,8.4656E-06
14317.965,8.4656E-06
14320.961,8.0976E-06
14324.000,7.9749E-06
14326.965,7.8522E-06
14329.965,7.9749E-06
14332.942,7.7295E-06
14335.966,7.4842E-06
14338.966,7.6068E-06
14341.965,7.6068E-06
14344.967,7.116E-06
14347.966,7.2388E-06
14350.965,6.9934E-06
14353.966,6.748E-06
14356.960,6.6252E-06
14359.995,6.748E-06
14363.230,6.5026E-06
14366.280,6.3799E-06
14369.566,6.6252E-06
14372.545,6.6252E-06
14375.593,6.8706E-06
14378.566,6.5026E-06
14381.564,6.2572E-06
14384.567,6.0118E-06
14387.566,6.2572E-06
14390.561,6.6252E-06
14393.566,6.1345E-06
14396.544,6.2572E-06
14399.583,6.0118E-06
14402.568,5.8891E-06
14405.543,6.0118E-06
14408.566,5.8891E-06
14411.566,5.7664E-06
14414.567,5.7664E-06
14417.596,6.1345E-06
14420.545,6.0118E-06
14423.566,5.3983E-06
14426.566,5.7664E-06
14429.533,5.7664E-06
14432.540,5.6437E-06
14435.537,5.8891E-06
14438.555,5.2756E-06
14441.540,5.7664E-06
14444.547,5.7664E-06
14447.569,5.521E-06
14450.539,5.6437E-06
14453.567,5.3983E-06
14456.542,5.521E-06
14459.566,5.3983E-06
14462.539,5.3983E-06
14465.539,5.521E-06
14468.541,5.3983E-06
14471.540,5.8891E-06
14474.537,5.2756E-06
14477.543,5.6437E-06
14480.540,5.2756E-06
14483.566,5.3983E-06
14486.539,5.521E-06
14489.540,5.3983E-06
14492.548,5.521E-06
14495.539,5.3983E-06
14498.540,5.2756E-06
14501.543,5.3983E-06
14602.549,4.2369E-06
14605.540,4.2493E-06
14608.515,4.2245E-06
14611.536,4.2493E-06
14614.540,4.2245E-06
14617.509,4.2245E-06
14620.542,4.2369E-06
14623.539,4.2121E-06
14626.517,4.274E-06
14629.542,4.274E-06
14632.514,4.2616E-06
14635.517,4.2616E-06
14638.515,4.2245E-06
14641.513,4.2369E-06
14644.519,4.2369E-06
14647.512,4.2616E-06
14650.536,4.2245E-06
14653.513,4.2369E-06
14656.515,4.2493E-06
14659.512,4.2245E-06
14662.513,4.2245E-06
14665.511,4.2493E-06
14668.518,4.2493E-06
14671.513,4.274E-06
14674.516,4.2616E-06
14677.514,4.2121E-06
14680.512,4.2245E-06
14683.515,4.1997E-06
14686.517,4.2369E-06
14689.517,4.2245E-06
14692.521,4.2121E-06
14695.519,4.2616E-06
14698.519,4.1997E-06
14701.516,4.2616E-06
14704.523,4.2245E-06
14707.510,4.2245E-06
14710.503,4.2369E-06
14713.496,4.2245E-06
14716.525,4.2493E-06
14719.851,4.2369E-06
14722.854,4.2245E-06
14725.853,4.2245E-06
14728.854,4.2369E-06
14731.851,4.2121E-06
14734.851,4.2493E-06
14737.851,4.1997E-06
14740.886,4.2121E-06
14743.849,4.1997E-06
14746.851,4.2493E-06
14749.850,4.2245E-06
14752.850,4.2493E-06
14755.852,4.2121E-06
14758.851,4.2369E-06
14761.854,4.2245E-06
14764.835,4.2493E-06
14767.860,4.2369E-06
14770.824,4.2121E-06
14773.848,4.2369E-06
14776.851,4.2493E-06
14779.822,4.274E-06
14782.872,4.1997E-06
14786.173,4.2369E-06
14789.173,4.1997E-06
14792.172,4.2369E-06
14795.175,4.2245E-06
14798.173,4.2493E-06
14801.162,4.2369E-06
14804.181,4.2369E-06
14807.176,4.2616E-06
14810.172,4.2369E-06
14813.173,4.2121E-06
14816.156,4.2245E-06
14819.173,4.1997E-06
14822.172,4.2864E-06
14825.174,4.1997E-06
14828.176,4.2245E-06
14831.176,4.1873E-06
14834.207,4.2245E-06
14837.172,4.2245E-06
14840.172,4.2245E-06
14843.175,4.2369E-06
14846.173,4.2493E-06
14849.172,4.2493E-06
14852.151,4.2121E-06
14855.177,4.1997E-06
14858.172,4.2245E-06
14861.173,4.2493E-06
14864.172,4.2121E-06
14867.171,4.2245E-06
14870.172,4.274E-06
14873.174,4.1997E-06
14876.151,4.2121E-06
14879.177,4.2121E-06
14882.146,4.2616E-06
14885.172,4.2369E-06
14888.148,4.1997E-06
14891.146,4.1997E-06
14894.146,4.2616E-06
14897.149,4.2121E-06
14900.150,4.2616E-06
15002.480,4.1728E-06
15005.519,4.1814E-06
15008.460,4.1802E-06
15011.464,4.1789E-06
15014.460,4.1789E-06
15017.440,4.1826E-06
15020.469,4.1752E-06
15023.489,4.1789E-06
15026.461,4.1876E-06
15029.462,4.1789E-06
15032.523,4.1728E-06
15035.460,4.1789E-06
15038.464,4.1802E-06
15041.461,4.1765E-06
15044.466,4.1814E-06
15047.463,4.1839E-06
15050.477,4.174E-06
15053.461,4.1789E-06
15056.461,4.1851E-06
15059.464,4.1752E-06
15062.487,4.1777E-06
15065.460,4.1826E-06
15068.468,4.1826E-06
15071.461,4.1752E-06
15074.491,4.1826E-06
15077.463,4.1826E-06
15080.460,4.174E-06
15083.444,4.1789E-06
15086.463,4.1826E-06
15089.461,4.1802E-06
15092.466,4.1802E-06
15095.497,4.1863E-06
15098.461,4.1851E-06
15101.774,4.1777E-06
15104.799,4.1839E-06
15107.774,4.1876E-06
15110.772,4.1802E-06
15113.772,4.1839E-06
15116.782,4.1888E-06
15119.772,4.1839E-06
15122.800,4.1802E-06
15125.773,4.19E-06
15128.799,4.1876E-06
15131.776,4.1802E-06
15134.772,4.1888E-06
15137.804,4.1863E-06
15140.787,4.1839E-06
15143.774,4.1851E-06
15146.774,4.1888E-06
15149.743,4.1839E-06
15152.776,4.1826E-06
15155.777,4.1876E-06
15158.804,4.1851E-06
15161.772,4.1789E-06
15164.779,4.1876E-06
15167.772,4.1876E-06
15170.775,4.4315E-06
15173.773,8.3332E-06
15176.772,1.8543E-05
15179.775,2.644E-05
15182.780,3.2778E-05
15185.773,3.7947E-05
15188.780,4.2225E-05
15191.773,4.5732E-05
15194.773,4.8603E-05
15197.773,5.0973E-05
15200.774,5.2924E-05
15203.776,5.452E-05
15405.425,0.005182
15408.436,0.0051819
15411.408,0.0051834
15414.406,0.005189
15417.404,0.0051924
15420.388,0.0051943
15423.410,0.0051958
15426.405,0.0051969
15429.436,0.005197
15432.722,0.0051974
15436.075,0.005197
15439.069,0.0051963
15442.068,0.0051955
15445.078,0.0051949
15448.071,0.005194
15451.066,0.0051937
15454.068,0.0051918
15457.069,0.0051905
15460.076,0.0051893
15463.041,0.0051878
15466.075,0.0051879
15469.411,0.0051867
15472.382,0.0051862
15475.379,0.0051842
15478.378,0.0051837
15481.382,0.0051821
15484.388,0.0051815
15487.379,0.0051803
15490.379,0.0051782
15493.452,0.0051774
15496.382,0.0051769
15499.393,0.0051759
15502.723,0.0051747
15505.720,0.0051738
15508.755,0.0051723
15511.724,0.0051716
15514.721,0.0051711
15517.719,0.0051781
15520.723,0.0051829
15523.721,0.0051866
15526.721,0.0051889
15529.723,0.005191
15532.725,0.0051918
15536.044,0.005192
15539.036,0.0051915
15542.068,0.0051915
15545.044,0.0051906
15548.046,0.0051904
15551.040,0.0051895
15554.044,0.0051891
15557.042,0.0051886
15560.041,0.0051878
15563.042,0.0051863
15566.049,0.0051858
15569.379,0.0051856
15572.360,0.0051851
15575.409,0.0051845
15578.379,0.0051825
15581.380,0.0051812
15584.382,0.0051796
15587.379,0.0051789
15590.379,0.0051778
15593.382,0.0051771
15596.361,0.0051758
15599.419,0.0051749
15602.379,0.0051744
15605.383,0.0051728
15608.379,0.0051732
15611.380,0.0051797
15614.382,0.005183
15617.381,0.0051858
15620.361,0.0051882
15623.380,0.0051889
15626.354,0.0051901
15629.379,0.00519
15632.354,0.0051899
15635.381,0.0051893
15638.360,0.0051885
15641.354,0.005188
15644.394,0.0051872
15647.379,0.0051868
15650.378,0.0051859
15653.354,0.0051855
15656.353,0.0051846
15659.357,0.0051836
15662.353,0.0051829
15665.355,0.0051828
15668.361,0.005181
15671.353,0.0051805
15674.353,0.0051792
15677.356,0.0051783
15680.352,0.0051775
15683.356,0.0051763
15686.357,0.0051756
15689.353,0.005175
15692.362,0.0051743
15695.356,0.0051728
15698.354,0.0051747
15701.352,0.0051812
15704.353,0.0051859
15707.379,0.0051877
15710.352,0.00519
15713.353,0.0051926
15716.367,0.0051943
15719.353,0.0051954
15722.353,0.0051958
15725.355,0.0051958
15728.352,0.005195
15731.354,0.0051931
15734.354,0.0051917
15737.353,0.0051911
15740.340,0.005191
15743.355,0.0051893
15746.354,0.0051888
15749.329,0.005187
15752.668,0.005187
15755.698,0.0051851
15758.667,0.0051839
15761.671,0.0051842
15764.675,0.005182
15767.670,0.0051814
15770.669,0.0051805
15773.728,0.0051792
15776.670,0.005178
15779.670,0.0051843
15782.667,0.0051888
15786.015,0.0051922
15789.015,0.005195
15792.015,0.005196
15795.015,0.0051974
15798.018,0.0051975
15801.014,0.005197
15804.053,0.0051981
15807.018,0.005197
15810.017,0.0051954
15813.016,0.0051944
15815.987,0.0051936
15819.377,0.0051929
15822.353,0.0051928
15825.327,0.0051923
15828.335,0.0051921
15831.327,0.0051913
15834.327,0.0051901
15837.328,0.0051899
15840.327,0.0051893
15843.330,0.0051888
15846.327,0.005188
15849.326,0.0051874
15852.674,0.0051867
15855.669,0.0051859
15858.668,0.0051845
15861.671,0.0051841
15864.668,0.0051834
15867.699,0.0051823
15870.670,0.005181
15873.671,0.0051805
15876.673,0.0051798
15879.669,0.0051789
15882.667,0.0051775
15885.991,0.0051774
15888.989,0.0051775
15891.994,0.0051771
15894.992,0.0051763
15897.991,0.005175
15901.015,0.0051742
15903.989,0.0051732
15906.993,0.0051721
15909.989,0.0051751
15912.989,0.0051808
15915.961,0.0051839
15919.327,0.0051863
15922.328,0.005188
15925.328,0.0051893
15928.360,0.0051895
15931.319,0.0051896
15934.357,0.0051904
15937.329,0.005189
15940.311,0.0051886
15943.327,0.0051884
15946.326,0.0051878
15949.575,0.0051867
15952.639,0.0051861
15955.637,0.0051852
15958.637,0.0051841
15961.638,0.0051831
15964.620,0.005183
15967.616,0.0051821
15970.640,0.0051813
15973.638,0.0051801
15976.638,0.0051802
15979.643,0.0051787
15982.617,0.0051778
15986.026,0.0051769
15988.990,0.0051763
15992.020,0.0051749
15995.020,0.0051736
15998.021,0.0051787
16000.986,0.0051831
16005.670,0.0051893
16008.642,0.0051911
16011.673,0.0051927
16014.667,0.0051929
16017.669,0.0051933
16020.673,0.0051937
16023.637,0.0051933
16026.670,0.0051928
16029.664,0.0051921
16032.732,0.0051916
16036.021,0.0051912
16039.037,0.00519
16042.016,0.0051894
16045.016,0.0051888
16048.019,0.005188
16050.985,0.0051874
16053.982,0.0051853
16056.991,0.0051847
16060.020,0.0051846
16062.990,0.005185
16065.991,0.0051846
16068.990,0.0051837
16071.995,0.0051814
16074.995,0.0051793
16077.996,0.0051778
16080.995,0.0051772
16083.998,0.0051771
16086.996,0.0051774
16089.995,0.0051775
16093.000,0.005177
16095.999,0.005177
16098.996,0.005176
16101.988,0.0051737
16105.002,0.0051777
16107.995,0.0051829
16110.999,0.005188
16113.999,0.0051906
16116.994,0.0051911
16119.995,0.0051929
16122.995,0.0051943
16125.996,0.0051947
16128.995,0.0051932
16131.999,0.0051927
16134.997,0.0051933
16138.000,0.0051943
16141.001,0.0051939
16143.999,0.0051938
16146.995,0.0051922
16149.994,0.0051902
16153.002,0.0051902
16155.997,0.0051893
16158.995,0.0051878
16161.999,0.0051878
16164.997,0.0051859
16167.994,0.0051855
16170.999,0.0051852
16174.006,0.0051831
16176.995,0.0041893
16180.000,0.0033818
16182.963,0.0027641
16185.996,0.0022771
16189.025,0.0018848
16192.017,0.001566
16194.976,0.0013042
16197.998,0.0010877
16200.982,0.00090868
16203.990,0.00075911
16206.977,0.0006347
16209.989,0.00053053
16213.008,0.00044293
16215.978,0.00037066
16218.995,0.00031005
16221.997,0.00025987
16224.995,0.00021742
16228.001,0.00018269
16230.996,0.00015361
16233.962,0.00012957
16236.969,0.0001092
16239.994,9.2634E-05
16242.995,7.9015E-05
16246.313,6.6378E-05
16249.307,5.7053E-05
16252.316,4.9323E-05
16255.310,4.2943E-05
16258.274,3.7422E-05
16261.307,3.2882E-05
16264.307,2.8588E-05
16267.308,2.5766E-05
16270.307,2.3312E-05
16273.276,2.0858E-05
16276.311,1.9263E-05
16279.306,1.7422E-05
16282.312,1.6073E-05
16285.332,1.4723E-05
16288.334,1.3864E-05
16291.333,1.276E-05
16294.334,1.2392E-05
16297.332,1.1778E-05
16300.344,1.1288E-05
16303.333,1.0552E-05
16306.675,1.0183E-05
16309.650,9.6926E-06
16312.648,9.4472E-06
16315.621,9.2018E-06
16318.686,9.0792E-06
16321.582,8.9564E-06
16324.622,8.4656E-06
16327.612,8.343E-06
16330.618,7.9749E-06
16333.609,8.2203E-06
16336.609,7.7295E-06
16339.620,7.4842E-06
16342.612,7.4842E-06
16345.601,7.2388E-06
16348.599,7.6068E-06
16351.579,6.8706E-06
16354.624,7.3614E-06
16357.625,6.748E-06
16360.617,6.8706E-06
16363.617,6.8706E-06
16366.610,6.8706E-06
16369.615,6.3799E-06
16372.622,6.748E-06
16375.616,6.6252E-06
16378.617,6.6252E-06
16381.622,6.3799E-06
16384.616,6.3799E-06
16387.609,6.2572E-06
16390.607,6.5026E-06
16393.607,6.0118E-06
16396.598,6.1345E-06
16399.647,6.3799E-06
16402.608,6.0118E-06
16405.608,5.8891E-06
16408.609,5.7664E-06
16411.608,6.2572E-06
16414.611,5.8891E-06
16417.609,5.8891E-06
16420.616,5.8891E-06
16423.579,5.8891E-06
16426.607,5.6437E-06
16429.572,6.0118E-06
16432.553,5.8891E-06
16435.608,5.7664E-06
16438.584,5.6437E-06
16441.581,5.8891E-06
16444.552,5.7664E-06
16447.582,5.7664E-06
16450.587,5.8891E-06
16453.583,5.6437E-06
16456.581,5.6437E-06
16459.588,5.521E-06
16462.609,5.2756E-06
16465.582,5.6437E-06
16468.613,5.521E-06
16471.616,5.521E-06
16474.592,5.6437E-06
16477.598,5.7664E-06
16480.615,5.521E-06
16483.619,5.521E-06
16486.996,5.6437E-06
16489.991,5.521E-06
16493.251,5.6437E-06
16496.276,5.3983E-06
16499.197,5.6437E-06
16502.275,5.3983E-06
16505.260,5.521E-06
16508.281,5.521E-06
16611.268,4.2616E-06
16614.249,4.2864E-06
16617.257,4.2616E-06
16620.259,4.2864E-06
16623.255,4.2616E-06
16626.259,4.2616E-06
16629.254,4.2988E-06
16632.254,4.2493E-06
16635.251,4.2493E-06
16638.254,4.2864E-06
16641.256,4.274E-06
16644.265,4.2616E-06
16647.221,4.274E-06
16650.253,4.2121E-06
16653.257,4.3112E-06
16656.254,4.2493E-06
16659.254,4.2493E-06
16662.225,4.274E-06
16665.257,4.2493E-06
16668.259,4.2616E-06
16671.572,4.2493E-06
16674.537,4.2616E-06
16677.596,4.2988E-06
16680.575,4.2245E-06
16683.568,4.2616E-06
16686.570,4.2616E-06
16689.566,4.2121E-06
16692.574,4.2121E-06
16695.536,4.274E-06
16698.570,4.274E-06
16701.571,4.2616E-06
16704.571,4.274E-06
16707.570,4.2369E-06
16710.536,4.2369E-06
16713.569,4.2493E-06
16716.583,4.2493E-06
16719.571,4.2369E-06
16722.570,4.2616E-06
16725.586,4.2245E-06
16728.905,4.2493E-06
16732.233,4.2245E-06
16735.255,4.274E-06
16738.230,4.2369E-06
16741.230,4.274E-06
16744.200,4.2369E-06
16747.197,4.2616E-06
16750.199,4.2369E-06
16753.196,4.2616E-06
16756.201,4.274E-06
16759.201,4.2616E-06
16762.196,4.2493E-06
16765.197,4.2245E-06
16768.200,4.2864E-06
16771.199,4.2245E-06
16774.191,4.2493E-06
16777.197,4.274E-06
16780.201,4.1997E-06
16783.196,4.2493E-06
16786.198,4.2369E-06
16789.192,4.2245E-06
16792.197,4.2864E-06
16795.198,4.2493E-06
16798.199,4.2616E-06
16801.197,4.2245E-06
16804.202,4.2369E-06
16807.199,4.2369E-06
16810.196,4.2369E-06
16813.197,4.2493E-06
16816.198,4.2864E-06
16819.197,4.2245E-06
16822.196,4.2369E-06
16825.197,4.2493E-06
16828.201,4.2369E-06
16831.195,4.2121E-06
16834.195,4.2493E-06
16837.199,4.2493E-06
16840.199,4.2493E-06
16843.198,4.2369E-06
16846.199,4.2493E-06
16849.209,4.2245E-06
16852.521,4.2245E-06
16855.511,4.274E-06
16858.511,4.2245E-06
16861.515,4.2121E-06
16864.512,4.2493E-06
16867.512,4.2493E-06
16870.514,4.2616E-06
16873.513,4.2245E-06
16876.517,4.274E-06
16879.512,4.2493E-06
16882.517,4.2245E-06
16885.511,4.274E-06
16888.512,4.2369E-06
16891.514,4.2121E-06
16894.512,4.274E-06
16898.660,4.2616E-06
16901.884,4.2121E-06
16904.875,4.2369E-06
16907.875,4.2245E-06
17011.214,4.1395E-06
17014.192,4.1457E-06
17017.204,4.1494E-06
17020.202,4.1432E-06
17023.196,4.1432E-06
17026.207,4.1518E-06
17029.203,4.1494E-06
17032.200,4.1432E-06
17035.207,4.1518E-06
17038.206,4.1518E-06
17041.207,4.1432E-06
17044.180,4.1494E-06
17047.172,4.1518E-06
17050.148,4.1469E-06
17053.523,4.1506E-06
17056.517,4.1518E-06
17059.517,4.1481E-06
17062.516,4.1481E-06
17065.517,4.1531E-06
17068.522,4.1543E-06
17071.858,4.1457E-06
17074.859,4.1518E-06
17077.855,4.1568E-06
17080.857,4.1432E-06
17083.823,4.1494E-06
17086.823,4.1592E-06
17089.855,4.1469E-06
17092.862,4.1469E-06
17095.854,4.1506E-06
17098.855,4.1481E-06
17101.855,4.142E-06
17104.857,4.1494E-06
17107.855,4.1506E-06
17110.854,4.1395E-06
17113.855,4.1457E-06
17116.857,4.1444E-06
17119.860,4.1395E-06
17122.856,4.137E-06
17125.855,4.1444E-06
17128.859,4.1407E-06
17132.182,4.1358E-06
17135.176,4.1395E-06
17138.175,4.1395E-06
17141.176,4.1334E-06
17144.180,4.137E-06
17147.178,4.1358E-06
17150.174,4.1309E-06
17153.180,4.1321E-06
17156.180,4.1395E-06
17159.175,4.1346E-06
17162.179,4.1309E-06
17165.145,4.1358E-06
17168.175,4.1346E-06
17171.177,4.1272E-06
17174.489,4.1321E-06
17177.516,4.137E-06
17180.499,5.1855E-06
17183.518,1.2842E-05
17186.494,2.1985E-05
17189.490,2.918E-05
17192.521,3.5E-05
17195.473,3.979E-05
17198.483,4.3738E-05
17201.491,4.6969E-05
17204.496,4.9624E-05
17207.494,5.1813E-05
17210.494,5.3613E-05
17414.116,0.0051852
17417.126,0.0051878
17420.131,0.0051904
17423.123,0.0051918
17426.125,0.0051923
17429.119,0.0051933
17432.119,0.0051933
17435.123,0.0051927
17438.120,0.0051926
17441.118,0.0051922
17444.130,0.0051915
17447.118,0.0051909
17450.117,0.0051901
17453.128,0.0051893
17456.120,0.0051888
17459.118,0.0051883
17462.118,0.0051873
17465.122,0.0051869
17468.124,0.0051862
17471.121,0.0051858
17474.121,0.0051848
17477.085,0.0051846
17480.118,0.0051834
17483.123,0.005183
17486.120,0.0051826
17489.118,0.0051819
17492.091,0.0051813
17495.118,0.0051802
17498.118,0.0051866
17501.118,0.0051913
17504.092,0.0051947
17507.118,0.005197
17510.120,0.005198
17513.122,0.0051987
17516.102,0.0051997
17519.086,0.0051998
17522.120,0.0051998
17525.119,0.0051997
17528.119,0.0051991
17531.092,0.0051988
17534.064,0.0051977
17537.123,0.005198
17540.102,0.0051971
17543.123,0.0051963
17546.098,0.005195
17549.076,0.0051943
17552.125,0.0051933
17555.102,0.0051924
17558.099,0.0051918
17561.097,0.0051911
17564.109,0.00519
17567.100,0.0051896
17570.095,0.0051883
17573.097,0.0051942
17576.105,0.0051989
17579.099,0.0052021
17582.119,0.0052037
17585.432,0.0052057
17588.443,0.0052063
17591.435,0.0052067
17594.430,0.0052066
17597.437,0.0052058
17600.457,0.0052053
17603.438,0.005204
17606.440,0.0052036
17609.436,0.0052021
17612.421,0.0052013
17615.399,0.0052001
17618.439,0.0051988
17621.446,0.0051975
17624.448,0.0051963
17627.440,0.0051949
17630.437,0.0051938
17633.437,0.0051923
17636.416,0.0051913
17639.437,0.0051906
17642.435,0.005189
17645.413,0.0051878
17648.437,0.0051874
17651.450,0.0051863
17654.792,0.0051929
17657.786,0.0051975
17660.794,0.0051994
17663.743,0.0052015
17666.748,0.0052026
17669.743,0.0052032
17672.777,0.0052029
17675.751,0.0052024
17678.720,0.0052028
17681.753,0.0052025
17684.756,0.005202
17687.750,0.005202
17690.782,0.0052013
17693.751,0.0052005
17696.756,0.0051997
17699.753,0.0051989
17702.753,0.0051982
17705.756,0.005197
17708.757,0.0051963
17711.718,0.0051951
17714.777,0.0051945
17717.758,0.0051927
17720.751,0.005192
17723.751,0.0051916
17726.719,0.005191
17729.755,0.0051905
17732.766,0.0051886
17735.752,0.0051879
17738.751,0.0051869
17741.751,0.0051861
17744.756,0.0051857
17747.752,0.0051847
17750.717,0.0051893
17753.757,0.0051942
17756.757,0.0051978
17759.718,0.0052007
17762.751,0.0052013
17765.726,0.0052036
17768.753,0.0052042
17771.750,0.0052034
17775.071,0.0052031
17778.075,0.0052034
17781.075,0.0052039
17784.071,0.0052042
17787.070,0.0052041
17790.042,0.0052034
17793.071,0.0052014
17796.081,0.0052012
17799.068,0.0051999
17802.071,0.0051992
17805.045,0.0051977
17808.070,0.0051966
17811.071,0.0051963
17814.071,0.005195
17817.074,0.0051943
17820.050,0.0051932
17823.071,0.0051917
17826.075,0.0051907
17829.074,0.0051907
17832.103,0.0051891
17835.389,0.0051888
17838.381,0.0051879
17841.385,0.0051863
17844.392,0.0051862
17847.383,0.0051853
17850.407,0.005184
17853.352,0.0051835
17856.383,0.0051826
17859.410,0.005182
17862.386,0.0051814
17865.412,0.0051851
17868.757,0.0051912
17872.059,0.0051945
17875.045,0.0051972
17878.071,0.0051981
17881.077,0.0051991
17884.048,0.0051994
17887.061,0.0051997
17890.045,0.0051994
17893.045,0.0051989
17896.072,0.0051983
17899.037,0.005198
17902.050,0.005197
17905.017,0.0051961
17908.061,0.0051954
17911.052,0.005195
17914.053,0.0051939
17917.051,0.0051927
17920.048,0.0051921
17923.053,0.0051915
17926.049,0.0051902
17929.048,0.005189
17932.036,0.0051883
17935.051,0.0051872
17938.044,0.0051864
17941.062,0.0051857
17944.049,0.0051845
17947.015,0.0051837
17950.043,0.005183
17953.045,0.0051818
17956.050,0.0051808
17959.045,0.0051798
17962.058,0.0051792
17965.042,0.0051782
17968.045,0.0051774
17971.045,0.005177
17974.051,0.0051758
17977.046,0.0051747
17980.016,0.0051799
17983.014,0.0051868
17986.046,0.0051899
17989.045,0.0051926
17992.050,0.0051947
17995.012,0.0051964
17998.045,0.0051964
18001.047,0.0051969
18004.025,0.0051967
18007.047,0.0051961
18010.012,0.0051958
18013.015,0.0051953
18016.382,0.005194
18019.357,0.0051934
18022.357,0.0051923
18025.329,0.0051913
18028.371,0.0051911
18031.358,0.0051893
18034.360,0.0051893
18037.363,0.0051885
18040.350,0.0051869
18043.326,0.0051856
18046.357,0.005184
18049.361,0.005184
18052.364,0.0051832
18055.325,0.0051825
18058.355,0.0051812
18061.329,0.0051813
18064.358,0.005184
18067.357,0.00519
18070.357,0.0051931
18073.356,0.0051955
18076.370,0.0051972
18079.357,0.0051983
18082.328,0.0051987
18085.360,0.0051996
18088.701,0.0052002
18091.701,0.0051994
18094.697,0.0051998
18097.703,0.0051991
18100.703,0.0051992
18103.698,0.0051974
18106.706,0.0051974
18109.698,0.005197
18112.698,0.0051972
18115.690,0.0051963
18118.664,0.0051943
18121.697,0.0051945
18124.677,0.0051933
18127.698,0.0051923
18130.677,0.0051911
18133.775,0.0051907
18137.019,0.0051894
18140.029,0.0051886
18142.985,0.0051879
18146.018,0.0051868
18149.001,0.0051866
18152.018,0.0051848
18155.018,0.0051843
18158.024,0.0051832
18161.021,0.0051831
18164.022,0.0051823
18167.022,0.0051812
18170.023,0.0051802
18173.018,0.0051792
18176.020,0.0051781
18178.985,0.005177
18182.040,0.0051767
18185.357,0.0042319
18188.338,0.0034139
18191.331,0.0027895
18194.357,0.0022966
18197.704,0.0018619
18200.718,0.0015473
18203.701,0.0012887
18206.698,0.0010747
18209.641,0.00089764
18212.679,0.0007504
18215.658,0.00062697
18218.669,0.00052415
18221.675,0.00043814
18224.669,0.00036624
18227.671,0.00030649
18230.671,0.00025606
18233.672,0.00021496
18236.677,0.00017999
18239.676,0.00015202
18242.676,0.00012822
18245.703,0.00010809
18248.686,9.2021E-05
18251.993,7.6316E-05
18255.018,6.5273E-05
18257.961,5.6317E-05
18260.993,4.8464E-05
18264.018,4.2698E-05
18267.017,3.6685E-05
18270.024,3.2268E-05
18272.959,2.8956E-05
18275.997,2.5643E-05
18278.994,2.2821E-05
18282.011,2.0612E-05
18285.331,1.8895E-05
18288.328,1.6932E-05
18291.672,1.5582E-05
18294.697,1.4723E-05
18297.697,1.3251E-05
18300.700,1.2637E-05
18303.698,1.2147E-05
18306.697,1.1533E-05
18309.703,1.0552E-05
18312.724,1.0797E-05
18316.028,9.938E-06
18319.367,9.3246E-06
18322.675,9.2018E-06
18325.671,8.711E-06
18328.672,8.4656E-06
18331.678,8.4656E-06
18334.676,8.2203E-06
18337.650,7.7295E-06
18340.681,7.9749E-06
18343.646,7.7295E-06
18346.655,7.7295E-06
18349.671,7.7295E-06
18352.646,7.3614E-06
18355.645,7.2388E-06
18358.652,7.116E-06
18361.677,6.8706E-06
18364.653,6.9934E-06
18367.614,6.6252E-06
18370.645,6.8706E-06
18373.724,6.8706E-06
18376.653,6.748E-06
18379.645,6.3799E-06
18382.620,6.3799E-06
18385.620,6.0118E-06
18388.624,6.3799E-06
18391.614,6.2572E-06
18394.616,6.6252E-06
18397.615,6.1345E-06
18400.699,6.5026E-06
18403.942,6.1345E-06
18406.952,5.8891E-06
18409.975,5.8891E-06
18412.978,5.7664E-06
18416.273,6.1345E-06
18419.264,5.7664E-06
18422.261,5.6437E-06
18425.258,5.7664E-06
18428.263,5.7664E-06
18431.262,5.7664E-06
18434.266,5.521E-06
18437.268,5.521E-06
18440.272,5.521E-06
18443.275,6.0118E-06
18446.267,5.7664E-06
18449.320,5.2756E-06
18452.310,5.6437E-06
18455.307,5.2756E-06
18458.257,5.3983E-06
18461.308,5.7664E-06
18464.280,5.2756E-06
18467.278,5.3983E-06
18470.278,5.3983E-06
18473.309,5.521E-06
18476.275,5.2756E-06
18479.304,5.1529E-06
18482.308,5.3983E-06
18485.305,5.3983E-06
18488.306,5.2756E-06
18491.305,5.2756E-06
18494.647,5.0302E-06
18497.650,5.1529E-06
18500.651,5.1529E-06
18503.646,4.9075E-06
18506.652,5.2756E-06
18509.650,5.0302E-06
18512.646,5.2756E-06
18515.660,5.1529E-06
18518.654,5.0302E-06
18620.003,4.1006E-06
18623.278,4.0634E-06
18626.277,4.113E-06
18629.276,4.1006E-06
18632.329,4.0882E-06
18635.622,4.1378E-06
18638.620,4.0882E-06
18641.623,4.0882E-06
18644.624,4.113E-06
18647.624,4.1006E-06
18650.591,4.113E-06
18653.610,4.0882E-06
18656.616,4.1254E-06
18659.613,4.0758E-06
18662.610,4.113E-06
18665.603,4.113E-06
18668.598,4.1006E-06
18671.621,4.0882E-06
18674.620,4.0882E-06
18677.618,4.1254E-06
18680.962,4.1254E-06
18683.991,4.1501E-06
18686.992,4.113E-06
18689.991,4.1006E-06
18692.992,4.0758E-06
18695.959,4.113E-06
18699.018,4.0758E-06
18702.279,4.051E-06
18705.280,4.0634E-06
18708.294,4.113E-06
18711.299,4.0758E-06
18714.269,4.0387E-06
18717.254,4.051E-06
18720.254,4.113E-06
18723.247,4.0387E-06
18726.289,4.1006E-06
18729.286,4.0634E-06
18732.270,4.0634E-06
18735.279,4.0882E-06
18738.254,4.0882E-06
18741.276,4.051E-06
18744.219,4.0387E-06
18747.260,4.0139E-06
18750.241,4.051E-06
18753.251,4.0634E-06
18756.263,4.051E-06
18759.232,4.0263E-06
18762.254,4.0634E-06
18765.221,4.051E-06
18768.253,4.051E-06
18771.252,4.0139E-06
18774.258,4.0387E-06
18777.255,4.0139E-06
18780.257,4.0263E-06
18783.251,4.0139E-06
18786.257,4.0263E-06
18789.222,4.0139E-06
18792.252,4.0015E-06
18795.249,4.0263E-06
18798.252,4.0139E-06
18801.278,4.0387E-06
18804.263,4.0015E-06
18807.252,4.0139E-06
18810.252,4.0263E-06
18813.257,4.0263E-06
18816.251,4.0263E-06
18819.253,4.0263E-06
18822.257,4.0139E-06
18825.254,4.051E-06
18828.256,4.0634E-06
18831.252,4.0387E-06
18834.257,4.0139E-06
18837.253,4.051E-06
18840.251,4.051E-06
18843.248,4.0758E-06
18846.252,4.1006E-06
18849.263,4.0634E-06
18852.263,4.0882E-06
18855.252,4.0634E-06
18858.252,4.051E-06
18861.598,4.051E-06
18864.597,4.0882E-06
18867.591,4.0882E-06
18870.597,4.1006E-06
18873.596,4.0758E-06
18876.572,4.0634E-06
18879.593,4.0758E-06
18882.638,4.1006E-06
18885.594,4.1006E-06
18888.595,4.0758E-06
18891.596,4.1006E-06
18894.569,4.1006E-06
18897.563,4.113E-06
18900.575,4.1006E-06
18903.568,4.0758E-06
18906.593,4.0882E-06
18909.597,4.1006E-06
18912.593,4.1378E-06
18915.530,4.1006E-06
18918.598,4.113E-06
19019.889,4.0459E-06
19022.876,4.0446E-06
19025.905,4.0483E-06
19028.878,4.0471E-06
19031.873,4.0397E-06
19034.876,4.0434E-06
19038.008,4.0483E-06
19046.459,4.0434E-06
19050.199,4.0446E-06
19053.221,4.0434E-06
19056.191,4.0533E-06
19059.227,4.0459E-06
19062.220,4.0471E-06
19065.165,4.0533E-06
19068.200,4.0545E-06
19071.189,4.0471E-06
19074.189,4.0508E-06
19077.226,4.057E-06
19080.538,4.052E-06
19083.560,4.052E-06
19086.538,4.0607E-06
19089.537,4.0557E-06
19092.541,4.0545E-06
19095.542,4.0594E-06
19098.533,4.0607E-06
19101.537,4.0533E-06
19104.541,4.0594E-06
19107.537,4.0619E-06
19110.536,4.0557E-06
19113.541,4.0557E-06
19116.539,4.0644E-06
19119.535,4.0607E-06
19122.536,4.057E-06
19125.497,4.0668E-06
19128.517,4.0644E-06
19131.511,4.0594E-06
19134.512,4.0656E-06
19137.504,4.0718E-06
19140.511,4.0631E-06
19143.509,4.0631E-06
19146.505,4.0742E-06
19149.491,4.0705E-06
19153.195,4.0718E-06
19156.197,4.0767E-06
19159.175,4.073E-06
19162.169,4.0705E-06
19165.167,4.0754E-06
19168.515,4.0779E-06
19171.512,4.0705E-06
19174.510,4.0767E-06
19177.513,4.0804E-06
19180.516,4.0754E-06
19183.479,4.0754E-06
19186.513,4.0915E-06
19189.515,5.7793E-06
19192.538,1.4743E-05
19195.513,2.346E-05
19198.467,3.0366E-05
19201.511,3.5968E-05
19204.489,4.0587E-05
19207.513,4.4388E-05
19210.523,4.7502E-05
19213.486,5.0068E-05
19216.511,5.218E-05
19219.484,5.3908E-05
19422.815,0.0051947
19425.794,0.0051932
19428.776,0.0051921
19431.768,0.005191
19435.115,0.0051895
19438.118,0.0051879
19441.115,0.0051869
19444.147,0.0051857
19447.118,0.0051845
19450.117,0.0051834
19453.117,0.0051821
19456.115,0.0051807
19459.118,0.0051852
19462.118,0.0051904
19465.112,0.0051943
19468.466,0.0051966
19471.456,0.0051981
19474.456,0.0051992
19477.459,0.0052005
19480.457,0.0052002
19483.489,0.0051999
19486.459,0.0051983
19489.487,0.0051963
19492.461,0.0051956
19495.459,0.0051948
19498.468,0.0051937
19501.795,0.0051923
19504.797,0.0051915
19507.771,0.0051907
19510.768,0.0051901
19513.771,0.0051894
19516.774,0.0051889
19519.770,0.0051879
19522.771,0.0051874
19525.772,0.0051872
19528.770,0.0051858
19531.760,0.0051848
19535.089,0.0051837
19538.111,0.0051823
19541.118,0.0051808
19544.089,0.0051796
19547.114,0.0051785
19550.118,0.0051774
19553.115,0.0051769
19556.095,0.0051824
19559.119,0.0051875
19562.116,0.0051904
19565.092,0.0051927
19568.089,0.005194
19571.089,0.0051947
19574.115,0.0051951
19577.115,0.0051955
19580.096,0.0051949
19583.119,0.0051947
19586.092,0.0051937
19589.089,0.0051933
19592.089,0.0051922
19595.092,0.0051913
19598.089,0.0051911
19601.089,0.0051905
19604.094,0.0051896
19607.090,0.0051885
19610.089,0.0051877
19613.091,0.0051859
19616.090,0.0051852
19619.089,0.005184
19622.092,0.005183
19625.091,0.0051818
19628.094,0.0051809
19631.088,0.0051793
19634.117,0.0051826
19637.089,0.0051888
19640.089,0.0051934
19643.091,0.0051963
19646.089,0.0051981
19649.059,0.0051999
19652.094,0.0052005
19655.089,0.005201
19658.090,0.0052007
19661.124,0.0051999
19664.118,0.0051998
19667.078,0.0051989
19670.091,0.0051982
19673.091,0.0051971
19676.071,0.0051964
19679.095,0.0051954
19682.107,0.0051947
19685.089,0.0051938
19688.120,0.0051923
19691.096,0.0051922
19694.092,0.0051905
19697.089,0.0051904
19700.068,0.0051889
19703.089,0.0051878
19706.089,0.0051872
19709.114,0.0051856
19712.430,0.0051848
19715.429,0.0051837
19718.463,0.005183
19721.432,0.0051818
19724.435,0.005181
19727.393,0.0051794
19730.430,0.0051792
19733.431,0.0051783
19736.430,0.0051809
19739.460,0.0051858
19742.403,0.0051889
19745.403,0.0051916
19748.409,0.0051933
19751.430,0.0051943
19754.403,0.0051944
19757.400,0.005194
19760.463,0.0051938
19763.407,0.005194
19766.401,0.0051951
19769.401,0.005194
19772.411,0.0051939
19775.474,0.0051929
19778.403,0.0051924
19781.410,0.0051918
19784.405,0.0051913
19787.397,0.0051909
19790.403,0.0051902
19793.406,0.0051888
19796.409,0.005188
19799.404,0.0051877
19802.404,0.0051866
19805.401,0.0051848
19808.401,0.0051845
19811.403,0.005183
19814.405,0.0051823
19817.402,0.0051815
19820.411,0.0051805
19823.400,0.0051821
19826.401,0.0051888
19829.403,0.0051927
19832.402,0.0051963
19835.400,0.005198
19838.401,0.0051988
19841.403,0.0052003
19844.409,0.005201
19847.401,0.0052005
19850.420,0.0051994
19853.398,0.0051976
19856.388,0.0051972
19859.407,0.0051977
19862.403,0.0051978
19865.405,0.005198
19868.414,0.0051978
19871.406,0.0051975
19874.401,0.0051974
19877.402,0.0051964
19880.405,0.0051943
19883.402,0.0051921
19886.402,0.0051923
19889.404,0.0051912
19892.386,0.0051889
19895.401,0.0051884
19898.377,0.0051886
19901.376,0.0051863
19904.402,0.0051845
19907.375,0.005184
19910.403,0.005184
19913.378,0.0051821
19916.384,0.0051804
19919.401,0.0051787
19922.402,0.0051775
19925.379,0.0051803
19928.375,0.0051862
19931.403,0.0051902
19934.377,0.0051934
19937.375,0.0051954
19940.386,0.0051964
19943.378,0.005196
19946.378,0.0051959
19949.550,0.0051953
19952.719,0.0051953
19955.713,0.005195
19958.717,0.0051947
19961.717,0.0051939
19964.695,0.0051939
19967.716,0.0051939
19970.711,0.0051937
19973.715,0.0051922
19976.685,0.0051918
19979.711,0.0051909
19982.713,0.0051905
19985.711,0.0051896
19988.691,0.0051884
19991.685,0.0051882
19994.684,0.005187
19997.711,0.0051855
20000.710,0.0051853
20003.688,0.0051853
20006.713,0.0051851
20009.683,0.0051851
20012.693,0.0051842
20015.688,0.0051828
20018.692,0.0051809
20021.695,0.0051794
20024.702,0.0051794
20027.690,0.0051783
20030.684,0.0051767
20033.701,0.0051764
20036.699,0.0051751
20039.720,0.0051747
20042.696,0.0051794
20045.690,0.0051837
20048.688,0.0051863
20052.011,0.0051885
20055.036,0.0051901
20058.017,0.005191
20061.037,0.0051913
20064.011,0.0051915
20067.038,0.0051911
20070.014,0.0051913
20073.072,0.0051907
20076.042,0.0051901
20079.013,0.0051895
20082.012,0.0051889
20085.011,0.005188
20088.013,0.0051872
20091.011,0.0051863
20094.073,0.0051859
20097.011,0.0051845
20100.016,0.0051846
20103.010,0.005183
20106.012,0.005183
20109.011,0.0051812
20112.011,0.0051802
20115.020,0.0051805
20118.013,0.0051797
20121.011,0.0051771
20124.016,0.0051766
20127.013,0.0051767
20130.011,0.0051766
20133.010,0.0051815
20136.080,0.0051856
20139.011,0.0051883
20142.011,0.005191
20145.011,0.0051926
20148.016,0.0051942
20151.014,0.0051953
20154.012,0.0051955
20157.037,0.0051954
20160.011,0.005195
20163.011,0.0051944
20166.015,0.005194
20169.012,0.0051938
20172.021,0.0051934
20175.014,0.0051936
20178.012,0.0051928
20181.011,0.0051911
20184.012,0.0051909
20187.012,0.0051905
20190.012,0.0051893
20193.010,0.0044737
20196.016,0.0035929
20199.005,0.0029281
20202.006,0.0024073
20205.007,0.00199
20208.034,0.0016522
20211.005,0.0013749
20214.006,0.0011467
20217.019,0.00095751
20219.991,0.00079972
20223.014,0.00066856
20226.010,0.00055887
20229.012,0.00046698
20232.004,0.00039066
20235.011,0.00032661
20238.012,0.00027312
20241.013,0.00022919
20244.016,0.00019226
20247.011,0.00016171
20250.014,0.00013595
20253.011,0.00011496
20256.012,9.7419E-05
20259.014,8.2819E-05
20262.013,7.0672E-05
20265.032,6.0488E-05
20267.990,5.19E-05
20270.986,4.5274E-05
20274.010,3.9262E-05
20276.988,3.46E-05
20279.985,3.0428E-05
20282.984,2.6747E-05
20285.985,2.4293E-05
20289.017,2.1471E-05
20292.331,1.9385E-05
20295.349,1.7913E-05
20298.342,1.6564E-05
20301.349,1.5214E-05
20304.349,1.4232E-05
20307.349,1.3374E-05
20310.375,1.2637E-05
20313.349,1.1901E-05
20316.357,1.1288E-05
20319.350,1.0552E-05
20322.512,1.0429E-05
20325.665,9.938E-06
20328.664,9.4472E-06
20331.683,9.2018E-06
20334.667,8.9564E-06
20337.664,8.9564E-06
20340.669,8.5884E-06
20343.666,8.0976E-06
20346.664,8.343E-06
20349.663,7.9749E-06
20352.638,7.3614E-06
20355.664,7.4842E-06
20358.665,7.3614E-06
20361.664,7.2388E-06
20364.644,7.6068E-06
20367.644,7.116E-06
20370.640,7.116E-06
20373.638,6.748E-06
20376.638,6.6252E-06
20379.643,6.8706E-06
20382.640,6.748E-06
20385.638,6.5026E-06
20388.645,6.748E-06
20391.638,6.6252E-06
20394.638,6.5026E-06
20397.634,6.6252E-06
20400.638,6.3799E-06
20403.639,6.3799E-06
20406.641,6.0118E-06
20409.638,6.1345E-06
20412.668,5.8891E-06
20415.959,6.1345E-06
20418.985,6.3799E-06
20421.988,6.1345E-06
20424.987,5.8891E-06
20427.955,5.7664E-06
20430.956,6.0118E-06
20433.960,5.6437E-06
20436.958,6.2572E-06
20439.958,5.8891E-06
20442.958,6.0118E-06
20445.955,5.6437E-06
20448.959,5.8891E-06
20451.986,5.521E-06
20454.988,5.8891E-06
20457.986,5.521E-06
20460.966,5.6437E-06
20463.960,5.7664E-06
20466.958,5.8891E-06
20469.958,5.521E-06
20472.962,5.6437E-06
20475.957,5.6437E-06
20478.959,5.2756E-06
20481.958,5.521E-06
20484.959,5.6437E-06
20487.958,5.2756E-06
20490.959,5.1529E-06
20493.959,5.521E-06
20496.958,5.521E-06
20499.960,5.6437E-06
20502.959,5.1529E-06
20505.957,5.2756E-06
20508.961,5.3983E-06
20511.960,5.2756E-06
20514.957,5.2756E-06
20517.959,5.3983E-06
20520.961,5.2756E-06
20523.959,5.1529E-06
20526.958,5.521E-06
20627.631,4.2245E-06
20630.615,4.1749E-06
20633.613,4.2121E-06
20636.649,4.2121E-06
20639.613,4.2245E-06
20642.611,4.2121E-06
20645.611,4.1997E-06
20648.649,4.1873E-06
20651.612,4.1997E-06
20654.610,4.1749E-06
20657.613,4.2121E-06
20660.616,4.1873E-06
20663.611,4.1997E-06
20666.613,4.2121E-06
20669.613,4.1997E-06
20672.611,4.2121E-06
20675.611,4.1625E-06
20678.616,4.2121E-06
20681.630,4.1749E-06
20684.618,4.1625E-06
20687.613,4.1501E-06
20690.611,4.1873E-06
20693.612,4.2121E-06
20696.614,4.1997E-06
20699.610,4.1997E-06
20702.611,4.1873E-06
20705.613,4.1873E-06
20708.592,4.2121E-06
20711.611,4.1997E-06
20714.614,4.1749E-06
20717.614,4.1997E-06
20720.587,4.1997E-06
20723.611,4.2121E-06
20726.585,4.1997E-06
20729.612,4.2245E-06
20732.590,4.2121E-06
20735.585,4.1873E-06
20738.611,4.1997E-06
20741.610,4.1997E-06
20744.585,4.1997E-06
20747.585,4.1997E-06
20750.590,4.1873E-06
20753.585,4.1873E-06
20756.588,4.2245E-06
20759.587,4.2121E-06
20762.585,4.1625E-06
20765.584,4.2121E-06
20768.588,4.1873E-06
20771.586,4.1873E-06
20774.585,4.1749E-06
20777.592,4.1749E-06
20780.592,4.1625E-06
20783.585,4.1625E-06
20786.585,4.1997E-06
20789.585,4.1997E-06
20792.586,4.2369E-06
20795.585,4.1997E-06
20798.553,4.1625E-06
20801.587,4.1997E-06
20804.590,4.1997E-06
20807.589,4.1873E-06
20810.588,4.1997E-06
20813.587,4.1749E-06
20816.588,4.2245E-06
20819.605,4.1625E-06
20822.574,4.1873E-06
20825.566,4.2121E-06
20828.594,4.2121E-06
20831.934,4.1997E-06
20834.957,4.2121E-06
20837.958,4.1997E-06
20840.962,4.1997E-06
20843.988,4.1749E-06
20846.958,4.1873E-06
20849.959,4.1749E-06
20852.958,4.1749E-06
20855.957,4.1873E-06
20858.960,4.1625E-06
20861.959,4.2245E-06
20864.981,4.1873E-06
20868.266,4.1873E-06
20871.246,4.1873E-06
20874.244,4.1997E-06
20877.244,4.2245E-06
20880.246,4.1625E-06
20883.244,4.1625E-06
20886.274,4.1997E-06
20889.244,4.1997E-06
20892.249,4.1749E-06
20895.244,4.1997E-06
20898.272,4.1873E-06
20901.246,4.1749E-06
20904.244,4.1625E-06
20907.275,4.1997E-06
20910.247,4.1997E-06
20913.243,4.1749E-06
20916.280,4.1873E-06
20919.249,4.1873E-06
20922.244,4.1625E-06
20925.246,4.1873E-06
21027.573,4.1506E-06
21030.554,4.1383E-06
21033.555,4.1407E-06
21036.559,4.1481E-06
21039.580,4.1432E-06
21042.557,4.1395E-06
21045.554,4.1494E-06
21048.588,4.1506E-06
21051.871,4.1407E-06
21054.864,4.1469E-06
21057.869,4.1494E-06
21060.871,4.1432E-06
21063.866,4.1469E-06
21066.993,4.1531E-06
21069.876,4.1481E-06
21072.873,4.1457E-06
21075.874,4.1555E-06
21078.872,4.1494E-06
21081.839,4.1432E-06
21084.904,4.1531E-06
21088.219,4.1518E-06
21091.218,4.1457E-06
21094.221,4.1506E-06
21097.217,4.1555E-06
21100.223,4.1494E-06
21105.005,4.1469E-06
21108.262,4.1555E-06
21111.280,4.1481E-06
21114.250,4.1506E-06
21117.245,4.1543E-06
21120.250,4.1481E-06
21123.249,4.1469E-06
21126.254,4.1531E-06
21129.253,4.1481E-06
21132.236,4.1444E-06
21135.245,4.1518E-06
21138.255,4.1555E-06
21141.250,4.1481E-06
21144.249,4.1518E-06
21147.333,4.1543E-06
21150.566,4.1469E-06
21153.562,4.1506E-06
21156.571,4.1555E-06
21159.531,4.1531E-06
21162.570,4.1506E-06
21165.523,4.1568E-06
21168.565,4.1543E-06
21171.569,4.1506E-06
21174.565,4.1506E-06
21177.564,4.1568E-06
21180.592,4.1494E-06
21183.908,4.1506E-06
21186.879,4.158E-06
21189.902,4.1531E-06
21192.900,4.1531E-06
21195.876,4.1592E-06
21198.869,4.7641E-06
21201.902,1.0775E-05
21204.887,2.041E-05
21207.903,2.7924E-05
21210.876,3.3977E-05
21213.877,3.8942E-05
21216.881,4.3041E-05
21219.878,4.6399E-05
21222.876,4.915E-05
21225.881,5.1426E-05
21228.848,5.3297E-05
21433.532,0.0051852
21436.517,0.0051841
21439.514,0.0051831
21442.514,0.0051814
21445.479,0.0051807
21448.551,0.0051801
21451.854,0.005178
21454.850,0.0051781
21457.850,0.0051765
21460.860,0.0051829
21463.852,0.005188
21466.851,0.0051911
21469.820,0.0051924
21472.851,0.0051933
21475.853,0.0051936
21478.842,0.0051934
21481.849,0.0051932
21484.840,0.0051924
21488.196,0.0051922
21491.171,0.0051917
21494.164,0.0051907
21497.171,0.0051895
21500.176,0.0051889
21503.171,0.0051875
21506.171,0.0051866
21509.138,0.0051858
21512.177,0.0051848
21515.171,0.0051837
21518.171,0.0051825
21521.178,0.0051816
21524.176,0.0051803
21527.171,0.0051794
21530.171,0.0051785
21533.177,0.0051769
21536.171,0.0051761
21539.171,0.0051743
21542.169,0.0051729
21545.175,0.005172
21548.141,0.0051709
21551.171,0.0051734
21554.201,0.0051798
21557.138,0.005183
21560.174,0.0051868
21563.172,0.005188
21566.138,0.0051889
21569.176,0.0051906
21572.116,0.0051911
21575.171,0.0051893
21578.171,0.0051884
21581.174,0.005189
21584.487,0.0051895
21587.513,0.005189
21590.825,0.0051866
21593.824,0.0051846
21596.836,0.0051853
21599.824,0.0051855
21602.824,0.0051835
21605.829,0.0051812
21608.825,0.0051791
21611.824,0.0051775
21614.875,0.0051771
21618.146,0.0051775
21621.171,0.0051777
21624.175,0.0051758
21627.172,0.0051748
21630.172,0.0051743
21633.176,0.0051797
21636.150,0.005185
21639.150,0.0051879
21642.171,0.0051893
21645.177,0.0051912
21648.173,0.0051917
21651.138,0.0051918
21654.145,0.0051916
21657.111,0.0051915
21660.153,0.0051909
21663.145,0.0051909
21666.145,0.0051907
21669.145,0.0051907
21672.146,0.0051902
21675.145,0.0051891
21678.150,0.005188
21681.137,0.005187
21684.152,0.0051866
21687.149,0.0051857
21690.148,0.0051843
21693.149,0.0051825
21696.148,0.0051808
21699.149,0.0051804
21702.149,0.0051792
21705.145,0.0051787
21708.155,0.0051778
21711.147,0.0051772
21714.147,0.0051758
21717.147,0.0051749
21720.145,0.0051743
21723.145,0.0051736
21726.150,0.0051727
21729.113,0.0051774
21732.143,0.005181
21735.490,0.0051825
21738.460,0.0051856
21741.457,0.0051868
21744.427,0.0051877
21747.491,0.0051882
21750.466,0.0051875
21753.486,0.0051872
21756.465,0.0051869
21759.485,0.0051862
21762.490,0.0051852
21765.459,0.0051845
21768.462,0.0051835
21771.465,0.0051826
21774.462,0.0051815
21777.460,0.005181
21780.463,0.0051802
21783.460,0.0051788
21786.460,0.0051781
21789.465,0.0051775
21792.460,0.0051767
21795.492,0.0051761
21798.499,0.0051749
21801.796,0.0051737
21804.803,0.0051734
21807.765,0.005172
21810.797,0.0051712
21813.798,0.0051776
21816.798,0.0051821
21819.800,0.0051856
21822.799,0.0051878
21825.797,0.0051894
21828.776,0.0051909
21831.810,0.0051912
21834.798,0.0051913
21837.798,0.005191
21840.768,0.0051896
21843.774,0.0051883
21846.777,0.0051874
21849.795,0.0051864
21852.785,0.0051853
21855.738,0.0051841
21858.799,0.005184
21861.772,0.005184
21864.720,0.0051825
21867.800,0.0051825
21870.818,0.0051816
21873.773,0.0051805
21876.778,0.0051797
21879.773,0.0051789
21882.735,0.0051783
21885.764,0.0051772
21888.751,0.0051761
21891.749,0.0051749
21894.744,0.0051736
21897.767,0.0051726
21901.092,0.0051729
21904.086,0.0051796
21907.119,0.0051846
21910.124,0.0051879
21913.197,0.00519
21916.441,0.005192
21919.426,0.0051931
21922.432,0.0051933
21925.430,0.0051934
21928.431,0.0051934
21931.373,0.0051929
21934.427,0.0051924
21937.432,0.0051918
21940.441,0.0051907
21943.432,0.005191
21946.435,0.0051904
21949.959,0.0051891
21953.091,0.0051874
21956.068,0.0051864
21959.063,0.0051857
21962.065,0.0051855
21965.068,0.0051847
21968.059,0.0051835
21971.059,0.0051828
21974.087,0.0051819
21977.060,0.0051809
21980.065,0.0051801
21983.082,0.0051793
21986.056,0.0051786
21989.086,0.0051776
21992.059,0.0051765
21995.061,0.0051753
21998.092,0.0051742
22001.062,0.0051731
22004.067,0.0051723
22007.061,0.0051718
22010.117,0.0051696
22013.059,0.0051701
22016.091,0.00517
22019.063,0.0051679
22022.060,0.005167
22025.107,0.0051724
22028.068,0.0051769
22031.104,0.0051801
22034.427,0.0051824
22037.399,0.0051836
22040.403,0.005184
22043.402,0.0051846
22046.399,0.0051847
22049.404,0.0051851
22052.384,0.0051843
22055.399,0.0051842
22058.400,0.005184
22061.402,0.0051835
22064.374,0.0051828
22067.373,0.005182
22070.400,0.0051816
22073.399,0.005182
22076.381,0.0051814
22079.398,0.0051815
22082.429,0.0051808
22085.397,0.0051789
22088.371,0.0051778
22091.399,0.0051769
22094.399,0.0051751
22097.373,0.0051742
22100.383,0.0051737
22103.376,0.0051718
22106.373,0.0051717
22109.375,0.0051705
22112.375,0.0051691
22115.373,0.0051682
22118.373,0.005167
22121.375,0.0051667
22124.381,0.0051664
22127.372,0.0051661
22130.372,0.0051734
22133.376,0.0051777
22136.375,0.005181
22139.372,0.0051828
22142.374,0.005184
22145.373,0.0051848
22148.388,0.0051852
22151.374,0.0051862
22154.371,0.0051869
22157.378,0.0051864
22160.375,0.0051859
22163.371,0.0051859
22166.371,0.0051855
22169.375,0.0051845
22172.381,0.0051843
22175.372,0.0051835
22178.377,0.0051829
22181.358,0.0051821
22184.373,0.005181
22187.373,0.0051809
22190.374,0.0051801
22193.372,0.0051787
22196.383,0.0051782
22199.376,0.0051781
22202.372,0.0049053
22205.372,0.0038999
22208.375,0.0031639
22211.372,0.0025933
22214.400,0.00214
22217.739,0.0017377
22220.718,0.0014452
22223.714,0.0012049
22226.713,0.0010056
22229.687,0.00084034
22232.712,0.00070243
22235.691,0.00058722
22238.688,0.00049053
22241.687,0.00041041
22244.693,0.00034305
22247.727,0.00028698
22251.034,0.00023594
22254.038,0.00019778
22257.034,0.00016601
22260.042,0.00014024
22263.059,0.00011815
22266.091,0.00010024
22269.034,8.5273E-05
22272.037,7.2267E-05
22275.036,6.2206E-05
22278.079,5.374E-05
22281.053,4.601E-05
22284.355,3.9507E-05
22287.372,3.4845E-05
22290.347,3.0551E-05
22293.346,2.7238E-05
22296.346,2.4416E-05
22299.383,2.2207E-05
22302.401,2.0244E-05
22305.372,1.7913E-05
22308.355,1.6932E-05
22311.347,1.5459E-05
22314.384,1.46E-05
22317.713,1.3374E-05
22320.715,1.2515E-05
22323.712,1.2024E-05
22326.712,1.1165E-05
22329.713,1.0674E-05
22332.718,1.0306E-05
22335.690,9.938E-06
22338.691,9.6926E-06
22341.687,9.0792E-06
22344.688,8.8338E-06
22347.701,8.8338E-06
22351.035,8.4656E-06
22354.037,8.5884E-06
22357.033,8.0976E-06
22360.034,8.0976E-06
22363.008,8.0976E-06
22366.038,7.6068E-06
22369.009,7.4842E-06
22372.011,7.116E-06
22375.008,7.3614E-06
22378.015,7.3614E-06
22381.009,6.8706E-06
22384.352,7.116E-06
22387.348,6.8706E-06
22390.349,6.9934E-06
22393.349,6.9934E-06
22396.391,6.748E-06
22399.690,6.748E-06
22402.662,6.748E-06
22405.700,6.6252E-06
22408.697,6.5026E-06
22411.690,6.0118E-06
22414.716,6.3799E-06
22417.699,6.0118E-06
22420.699,6.2572E-06
22423.693,6.3799E-06
22426.691,6.0118E-06
22429.693,6.1345E-06
22432.660,6.1345E-06
22435.663,6.0118E-06
22438.693,5.7664E-06
22441.693,5.8891E-06
22444.696,5.7664E-06
22447.701,6.2572E-06
22451.042,5.7664E-06
22454.041,5.7664E-06
22457.040,5.7664E-06
22460.045,5.8891E-06
22463.045,5.7664E-06
22466.039,5.7664E-06
22469.040,5.521E-06
22472.045,5.7664E-06
22475.043,5.6437E-06
22478.041,5.8891E-06
22480.995,5.8891E-06
22483.986,5.7664E-06
22487.041,5.7664E-06
22490.049,5.3983E-06
22493.038,5.6437E-06
22496.352,5.3983E-06
22499.322,5.1529E-06
22502.352,5.6437E-06
22505.354,5.6437E-06
22508.365,5.3983E-06
22511.352,5.521E-06
22514.320,5.521E-06
22517.378,5.521E-06
22520.355,5.521E-06
22523.352,5.521E-06
22526.352,5.3983E-06
22529.357,5.6437E-06
22532.363,5.6437E-06
22535.353,5.1529E-06
22638.368,4.2369E-06
22641.321,4.2369E-06
22644.333,4.2369E-06
22647.330,4.2493E-06
22650.326,4.2616E-06
22653.326,4.2369E-06
22656.293,4.274E-06
22659.327,4.2493E-06
22662.352,4.274E-06
22665.350,4.2616E-06
22668.333,4.274E-06
22671.327,4.2245E-06
22674.329,4.2616E-06
22677.330,4.2616E-06
22680.329,4.2245E-06
22683.330,4.2616E-06
22686.328,4.2616E-06
22689.326,4.2864E-06
22692.333,4.2245E-06
22695.330,4.2616E-06
22698.666,4.2493E-06
22701.671,4.2369E-06
22704.674,4.2245E-06
22707.667,4.2864E-06
22710.667,4.2616E-06
22713.666,4.2121E-06
22716.671,4.2493E-06
22719.665,4.2864E-06
22722.671,4.2121E-06
22725.656,4.2493E-06
22728.658,4.2493E-06
22731.662,4.2245E-06
22734.624,4.2616E-06
22737.657,4.2616E-06
22740.668,4.2864E-06
22743.632,4.2616E-06
22746.660,4.2864E-06
22749.624,4.2493E-06
22752.657,4.2493E-06
22755.661,4.2616E-06
22758.658,4.2493E-06
22761.660,4.2369E-06
22764.634,4.2493E-06
22767.984,4.2616E-06
22770.979,4.1997E-06
22773.980,4.2369E-06
22776.958,4.2369E-06
22779.954,4.274E-06
22782.988,4.2245E-06
22785.986,4.2493E-06
22788.988,4.2864E-06
22791.987,4.2121E-06
22794.988,4.2369E-06
22797.947,4.2121E-06
22800.959,4.2864E-06
22803.965,4.1997E-06
22806.961,4.2616E-06
22809.963,4.2493E-06
22812.961,4.2616E-06
22815.955,4.2493E-06
22818.961,4.2493E-06
22821.963,4.2616E-06
22824.961,4.2245E-06
22827.958,4.2369E-06
22830.961,4.2369E-06
22833.957,4.2121E-06
22836.956,4.2493E-06
22839.959,4.274E-06
22842.956,4.2245E-06
22845.956,4.2245E-06
22848.954,4.2493E-06
22851.960,4.2121E-06
22854.956,4.2616E-06
22857.957,4.2493E-06
22860.959,4.2369E-06
22863.956,4.2121E-06
22866.956,4.2616E-06
22869.959,4.2121E-06
22872.956,4.2493E-06
22875.956,4.2121E-06
22878.960,4.2493E-06
22881.955,4.2493E-06
22884.956,4.2245E-06
22887.958,4.2245E-06
22890.958,4.2369E-06
22893.956,4.2493E-06
22896.956,4.2369E-06
22899.962,4.1997E-06
22902.958,4.2369E-06
22905.957,4.2245E-06
22908.961,4.2493E-06
22911.956,4.2369E-06
22914.958,4.2616E-06
22917.959,4.2245E-06
22920.951,4.2369E-06
22923.957,4.2616E-06
22926.959,4.1873E-06
22929.957,4.2245E-06
22932.926,4.2369E-06
22935.958,4.2493E-06
23038.262,4.1839E-06
23041.244,4.1765E-06
23044.253,4.1814E-06
23047.245,4.1826E-06
23050.243,4.1789E-06
23053.242,4.1789E-06
23056.243,4.1851E-06
23059.242,4.1851E-06
23062.242,4.1765E-06
23065.243,4.1814E-06
23068.247,4.1839E-06
23071.243,4.1789E-06
23074.244,4.1777E-06
23077.242,4.1851E-06
23080.246,4.1839E-06
23083.245,4.1789E-06
23086.243,4.1851E-06
23089.242,4.1839E-06
23092.249,4.1789E-06
23095.245,4.1863E-06
23098.241,4.1851E-06
23101.242,4.1802E-06
23104.243,4.1814E-06
23107.243,4.1814E-06
23110.243,4.1802E-06
23113.244,4.1765E-06
23116.220,4.1839E-06
23119.242,4.1839E-06
23122.245,4.1777E-06
23125.242,4.1839E-06
23128.218,4.1863E-06
23131.235,4.1814E-06
23134.216,4.1777E-06
23137.240,4.1826E-06
23140.221,4.1814E-06
23143.245,4.1777E-06
23146.242,4.1851E-06
23149.242,4.1851E-06
23152.219,4.1814E-06
23155.216,4.1814E-06
23158.216,4.1888E-06
23161.215,4.1789E-06
23164.221,4.1789E-06
23167.217,4.1888E-06
23170.216,4.1839E-06
23173.212,4.1839E-06
23176.216,4.1851E-06
23179.242,4.1888E-06
23182.213,4.1814E-06
23185.212,4.1839E-06
23188.220,4.1876E-06
23191.212,4.1802E-06
23194.231,4.1826E-06
23197.246,4.19E-06
23200.553,4.1839E-06
23203.551,4.1839E-06
23206.553,4.1863E-06
23209.551,4.9317E-06
23212.558,1.1512E-05
23215.551,2.0966E-05
23218.554,2.8369E-05
23221.587,3.4346E-05
23224.552,3.9238E-05
23227.552,4.3286E-05
23230.525,4.6598E-05
23233.544,4.9318E-05
23236.502,5.156E-05
23239.527,5.3403E-05
23444.222,0.0051753
23447.190,0.0051781
23450.163,0.005183
23453.190,0.0051853
23456.193,0.0051878
23459.190,0.0051891
23462.187,0.0051893
23465.235,0.0051895
23468.183,0.0051891
23471.166,0.0051888
23474.191,0.0051883
23477.183,0.0051874
23480.166,0.0051866
23483.174,0.0051859
23486.178,0.0051848
23489.157,0.0051843
23492.143,0.0051829
23495.135,0.0051826
23498.133,0.0051819
23501.170,0.0051805
23504.166,0.0051792
23507.164,0.0051778
23510.165,0.005177
23513.161,0.0051758
23516.172,0.0051744
23519.165,0.0051732
23522.166,0.005172
23525.165,0.0051713
23528.164,0.0051701
23531.165,0.0051695
23534.165,0.0051684
23537.165,0.0051678
23540.171,0.005167
23543.167,0.0051722
23546.164,0.0051772
23549.163,0.0051799
23552.165,0.0051819
23555.164,0.0051834
23558.183,0.0051843
23561.166,0.0051842
23564.171,0.0051845
23567.163,0.005184
23570.165,0.0051832
23573.164,0.0051826
23576.164,0.0051823
23579.166,0.0051815
23582.165,0.005181
23585.164,0.0051809
23588.144,0.0051799
23591.167,0.0051791
23594.164,0.0051781
23597.163,0.0051775
23600.165,0.0051765
23603.164,0.0051753
23606.164,0.0051739
23609.166,0.0051731
23612.142,0.0051715
23615.194,0.0051697
23618.167,0.0051696
23621.162,0.0051765
23624.164,0.0051814
23627.166,0.005184
23630.138,0.0051864
23633.165,0.0051879
23636.141,0.0051891
23639.168,0.0051894
23642.164,0.0051894
23645.141,0.005189
23648.164,0.0051882
23651.138,0.0051879
23654.138,0.0051873
23657.168,0.0051861
23660.143,0.0051861
23663.140,0.0051857
23666.138,0.0051842
23669.143,0.0051839
23672.138,0.005182
23675.138,0.0051813
23678.137,0.0051802
23681.139,0.0051788
23684.142,0.0051783
23687.137,0.0051766
23690.145,0.0051763
23693.140,0.0051745
23696.137,0.0051742
23699.133,0.0051728
23702.479,0.0051731
23705.478,0.0051721
23708.483,0.0051713
23711.480,0.0051705
23714.462,0.0051699
23717.478,0.0051689
23720.484,0.0051668
23723.482,0.0051662
23726.480,0.0051704
23729.483,0.0051759
23732.459,0.0051787
23735.479,0.0051813
23738.479,0.0051826
23741.478,0.0051841
23744.468,0.0051831
23747.450,0.005184
23750.451,0.0051851
23753.444,0.0051852
23756.470,0.0051852
23759.850,0.0051852
23762.816,0.0051847
23765.792,0.0051828
23768.819,0.0051815
23771.788,0.0051801
23774.816,0.0051786
23777.816,0.0051771
23780.794,0.0051761
23783.790,0.0051742
23786.793,0.0051733
23789.818,0.0051722
23792.790,0.0051711
23795.791,0.0051707
23798.788,0.0051694
23801.826,0.0051689
23804.821,0.0051682
23807.788,0.0051672
23810.791,0.0051658
23813.792,0.0051669
23816.790,0.0051744
23819.790,0.0051787
23822.788,0.0051824
23825.790,0.0051847
23828.795,0.0051861
23831.788,0.0051867
23834.793,0.0051872
23837.790,0.0051873
23840.822,0.0051868
23843.818,0.0051866
23846.790,0.0051864
23849.791,0.0051852
23852.769,0.0051845
23855.790,0.0051839
23858.790,0.0051825
23861.793,0.0051816
23864.788,0.0051809
23867.790,0.0051801
23870.766,0.0051791
23873.789,0.005177
23876.795,0.0051772
23879.791,0.005177
23882.792,0.0051767
23885.789,0.005176
23888.790,0.0051749
23891.791,0.0051736
23894.790,0.0051724
23897.793,0.0051715
23900.798,0.0051707
23903.821,0.00517
23906.790,0.0051682
23909.792,0.0051677
23912.791,0.0051666
23915.820,0.0051653
23918.763,0.0051652
23921.790,0.0051672
23924.771,0.0051728
23927.796,0.005177
23930.797,0.0051803
23933.792,0.0051823
23936.766,0.005183
23939.763,0.0051826
23942.764,0.0051826
23945.764,0.005183
23948.776,0.005183
23952.763,0.005182
23955.759,0.0051812
23958.758,0.005181
23961.759,0.0051805
23964.763,0.0051797
23967.759,0.0051792
23970.761,0.0051781
23973.757,0.005177
23976.759,0.0051769
23979.759,0.0051756
23982.759,0.0051748
23985.759,0.0051745
23988.769,0.0051739
23991.762,0.0051739
23994.760,0.0051731
23997.792,0.0051723
24000.763,0.0051711
24003.761,0.00517
24006.760,0.0051691
24009.752,0.0051675
24012.781,0.0051663
24015.759,0.0051656
24018.737,0.0051652
24021.765,0.0051635
24024.762,0.0051635
24027.778,0.0051624
24030.762,0.0051686
24034.081,0.0051742
24037.080,0.0051777
24040.079,0.0051801
24043.092,0.005182
24046.108,0.0051825
24049.085,0.005183
24052.117,0.0051835
24055.084,0.0051828
24058.085,0.0051823
24061.087,0.0051814
24064.103,0.0051802
24067.086,0.0051798
24070.087,0.0051799
24073.119,0.0051788
24076.089,0.0051775
24079.084,0.0051764
24082.083,0.0051754
24085.085,0.0051749
24088.084,0.0051749
24091.085,0.0051736
24094.115,0.0051731
24097.084,0.0051713
24100.063,0.0051702
24103.085,0.0051694
24106.084,0.0051678
24109.088,0.0051682
24112.086,0.0051699
24115.083,0.0051769
24118.087,0.0051797
24121.086,0.0051826
24124.067,0.0051846
24127.084,0.0051856
24130.084,0.0051868
24133.084,0.0051868
24136.085,0.0051869
24139.085,0.0051868
24142.084,0.0051864
24145.060,0.0051857
24148.062,0.0051853
24151.058,0.0051848
24154.083,0.0051839
24157.059,0.0051839
24160.058,0.0051825
24163.061,0.0051816
24166.058,0.0051819
24169.059,0.0051809
24172.066,0.0051789
24175.083,0.0051794
24178.064,0.0051791
24181.063,0.0051766
24184.062,0.005177
24187.060,0.0051755
24190.058,0.0051747
24193.060,0.005174
24196.064,0.0051733
24199.059,0.0051718
24202.059,0.0051709
24205.061,0.0051699
24208.058,0.0051693
24211.061,0.0047996
24214.061,0.0038272
24217.057,0.0031076
24220.066,0.0025495
24223.060,0.0021052
24226.084,0.0017453
24229.084,0.0014517
24232.084,0.0012103
24235.086,0.0010099
24238.060,0.00084414
24241.060,0.00070537
24244.067,0.00058992
24247.057,0.00049286
24250.061,0.00041213
24253.027,0.0003449
24256.062,0.00028846
24259.061,0.00024195
24262.081,0.00020281
24265.083,0.00017042
24268.067,0.00014331
24271.061,0.00012098
24274.054,0.00010245
24277.044,8.6745E-05
24280.398,7.3003E-05
24283.370,6.2083E-05
24286.372,5.374E-05
24289.371,4.6256E-05
24292.381,4.0489E-05
24295.396,3.5704E-05
24298.399,3.1164E-05
24301.441,2.7729E-05
24304.373,2.4661E-05
24307.399,2.2085E-05
24310.398,2.0244E-05
24313.396,1.8159E-05
24316.378,1.6809E-05
24319.396,1.5705E-05
24322.427,1.4478E-05
24325.395,1.3742E-05
24328.425,1.276E-05
24331.395,1.2147E-05
24334.398,1.141E-05
24337.399,1.1165E-05
24340.395,1.0797E-05
24343.987,1.0306E-05
24347.059,9.6926E-06
24350.036,9.0792E-06
24353.060,9.0792E-06
24356.033,8.711E-06
24359.398,8.8338E-06
24362.370,8.2203E-06
24365.400,8.2203E-06
24368.373,7.9749E-06
24371.370,7.7295E-06
24374.370,7.6068E-06
24377.375,7.7295E-06
24380.378,7.8522E-06
24383.370,7.6068E-06
24386.371,7.3614E-06
24389.375,7.116E-06
24392.371,6.8706E-06
24395.370,6.8706E-06
24398.400,6.748E-06
24401.370,6.6252E-06
24404.351,7.116E-06
24407.373,6.5026E-06
24410.370,6.3799E-06
24413.370,6.6252E-06
24416.372,6.748E-06
24419.369,6.2572E-06
24422.370,6.5026E-06
24425.373,6.2572E-06
24428.352,6.6252E-06
24431.338,6.1345E-06
24434.370,6.2572E-06
24437.374,6.2572E-06
24440.370,6.3799E-06
24443.371,6.1345E-06
24446.372,6.2572E-06
24449.369,5.7664E-06
24452.352,5.8891E-06
24455.374,5.8891E-06
24458.370,5.6437E-06
24461.347,5.7664E-06
24464.314,5.6437E-06
24467.343,5.8891E-06
24470.370,5.521E-06
24473.373,5.6437E-06
24476.378,5.521E-06
24479.346,5.6437E-06
24482.378,5.7664E-06
24485.344,5.6437E-06
24488.344,6.1345E-06
24491.347,5.7664E-06
24494.372,5.521E-06
24497.345,5.6437E-06
24500.352,5.2756E-06
24503.347,5.7664E-06
24506.370,5.521E-06
24509.347,5.6437E-06
24512.345,5.521E-06
24515.371,5.3983E-06
24518.349,5.6437E-06
24521.347,5.521E-06
24524.389,5.3983E-06
24527.687,5.521E-06
24530.687,5.7664E-06
24533.685,5.1529E-06
24536.685,5.3983E-06
24539.688,5.2756E-06
24542.688,5.3983E-06
24545.686,5.2756E-06
24647.076,4.274E-06
24650.008,4.3112E-06
24653.039,4.2616E-06
24656.007,4.274E-06
24659.009,4.2864E-06
24662.011,4.2616E-06
24665.029,4.2864E-06
24667.988,4.2493E-06
24670.989,4.2369E-06
24673.982,4.2493E-06
24676.975,4.2864E-06
24680.016,4.274E-06
24683.013,4.2493E-06
24686.000,4.2864E-06
24689.010,4.2493E-06
24692.011,4.2493E-06
24695.006,4.2369E-06
24697.985,4.2369E-06
24700.974,4.2245E-06
24703.971,4.2864E-06
24707.006,4.274E-06
24709.980,4.2616E-06
24712.981,4.2616E-06
24716.001,4.2369E-06
24719.007,4.2493E-06
24721.970,4.2864E-06
24724.973,4.2493E-06
24727.970,4.2616E-06
24730.970,4.274E-06
24733.971,4.2493E-06
24736.969,4.2988E-06
24739.976,4.274E-06
24742.982,4.2369E-06
24745.982,4.2988E-06
24748.980,4.2864E-06
24751.980,4.2493E-06
24754.979,4.2616E-06
24757.980,4.2864E-06
24760.980,4.2493E-06
24763.989,4.274E-06
24766.980,4.2616E-06
24769.978,4.2616E-06
24772.982,4.2616E-06
24775.980,4.2864E-06
24778.962,4.3112E-06
24782.017,4.2493E-06
24784.980,4.2493E-06
24787.985,4.2864E-06
24790.983,4.2616E-06
24793.992,4.2864E-06
24797.013,4.2864E-06
24799.980,4.3112E-06
24802.984,4.2616E-06
24805.980,4.2616E-06
24808.981,4.2121E-06
24811.987,4.2864E-06
24815.012,4.2616E-06
24817.980,4.2988E-06
24821.013,4.2616E-06
24823.981,4.2864E-06
24826.981,4.274E-06
24829.985,4.274E-06
24832.973,4.2616E-06
24835.985,4.2493E-06
24838.982,4.2245E-06
24841.982,4.2493E-06
24844.982,4.2864E-06
24847.979,4.2616E-06
24850.979,4.274E-06
24853.980,4.274E-06
24856.979,4.2616E-06
24859.987,4.2616E-06
24863.010,4.2616E-06
24865.980,4.2864E-06
24868.982,4.2864E-06
24872.011,4.2493E-06
24874.981,4.274E-06
24877.954,4.274E-06
24880.959,4.2493E-06
24884.016,4.2369E-06
24887.294,4.2864E-06
24890.293,4.2616E-06
24893.292,4.2493E-06
24896.292,4.274E-06
24899.291,4.2493E-06
24902.293,4.2493E-06
24905.322,4.274E-06
24908.300,4.274E-06
24911.293,4.2864E-06
24914.294,4.2493E-06
24917.296,4.2616E-06
24920.291,4.2616E-06
24923.295,4.2369E-06
24926.324,4.2864E-06
24929.292,4.2616E-06
24932.336,4.2369E-06
24935.294,4.2988E-06
24938.292,4.2864E-06
24941.292,4.2493E-06
24944.292,4.2493E-06
25047.000,4.211E-06
25049.954,4.2073E-06
25052.957,4.2048E-06
25055.955,4.211E-06
25058.953,4.2159E-06
25061.953,4.2085E-06
25064.956,4.2073E-06
25067.953,4.2147E-06
25070.954,4.211E-06
25073.954,4.2097E-06
25076.954,4.2122E-06
25079.954,4.2159E-06
25082.955,4.2073E-06
25085.953,4.2122E-06
25088.997,4.2184E-06
25091.989,4.211E-06
25094.954,4.211E-06
25097.952,4.2221E-06
25100.956,4.2147E-06
25103.956,4.2134E-06
25107.328,4.2184E-06
25110.269,4.2184E-06
25113.265,4.2134E-06
25116.273,4.2184E-06
25119.267,4.2184E-06
25122.265,4.2134E-06
25125.266,4.2159E-06
25128.268,4.2221E-06
25131.264,4.2159E-06
25134.296,4.2147E-06
25137.268,4.2233E-06
25140.270,4.2184E-06
25143.265,4.2134E-06
25146.268,4.2208E-06
25149.266,4.2245E-06
25152.265,4.2134E-06
25155.296,4.2171E-06
25158.269,4.2258E-06
25161.266,4.2184E-06
25164.293,4.2196E-06
25167.265,4.2221E-06
25170.266,4.2196E-06
25173.264,4.2147E-06
25176.295,4.2233E-06
25179.239,4.2221E-06
25182.240,4.2147E-06
25185.268,4.2171E-06
25188.245,4.2245E-06
25191.242,4.2159E-06
25194.240,4.2147E-06
25197.284,4.2221E-06
25200.242,4.2184E-06
25203.240,4.2097E-06
25206.240,4.2196E-06
25209.240,4.2208E-06
25212.245,4.2134E-06
25215.269,4.2147E-06
25218.269,5.1633E-06
25221.265,1.2405E-05
25224.268,2.165E-05
25227.239,2.8909E-05
25230.257,3.4783E-05
25233.239,3.9606E-05
25236.244,4.3583E-05
25239.272,4.6843E-05
25242.243,4.9519E-05
25245.239,5.1723E-05
25248.241,5.354E-05
25451.973,0.0051635
25454.867,0.005162
25457.869,0.0051608
25460.871,0.0051601
25463.870,0.0051588
25466.871,0.005158
25469.866,0.0051566
25472.866,0.0051553
25475.868,0.0051543
25478.866,0.0051609
25481.869,0.0051652
25484.872,0.0051678
25487.869,0.0051705
25490.870,0.0051715
25493.885,0.0051722
25496.875,0.0051724
25499.867,0.0051734
25502.867,0.0051722
25505.869,0.0051713
25508.872,0.0051712
25511.865,0.0051711
25514.902,0.0051701
25517.865,0.0051685
25520.866,0.0051675
25523.871,0.0051664
25526.874,0.0051655
25529.903,0.0051646
25532.923,0.0051632
25536.219,0.0051621
25539.219,0.0051686
25542.214,0.0051737
25545.219,0.0051775
25548.223,0.0051801
25551.221,0.0051813
25554.219,0.0051818
25557.221,0.0051815
25560.223,0.005182
25563.219,0.0051823
25566.219,0.0051821
25569.226,0.0051816
25572.225,0.0051808
25575.186,0.0051803
25578.192,0.0051796
25581.189,0.0051788
25584.219,0.0051775
25587.223,0.0051767
25590.185,0.0051759
25593.218,0.0051748
25596.223,0.0051736
25599.221,0.0051726
25602.214,0.0051718
25605.224,0.0051701
25608.224,0.0051695
25611.219,0.0051673
25614.228,0.005167
25617.557,0.0051653
25620.565,0.005164
25623.561,0.0051636
25626.560,0.0051662
25629.561,0.0051711
25632.560,0.0051751
25635.563,0.0051775
25638.867,0.0051794
25641.834,0.0051803
25644.850,0.0051802
25647.859,0.0051802
25650.858,0.0051797
25653.860,0.0051796
25656.858,0.0051788
25659.857,0.005178
25662.863,0.0051777
25665.856,0.0051771
25668.863,0.0051763
25671.861,0.0051754
25674.857,0.0051744
25677.867,0.0051731
25680.863,0.0051716
25683.859,0.0051709
25686.858,0.00517
25689.859,0.0051689
25692.874,0.0051685
25695.868,0.0051673
25698.835,0.0051666
25701.867,0.0051656
25704.868,0.0051646
25707.867,0.0051645
25710.869,0.0051628
25713.855,0.0051617
25716.888,0.0051618
25719.865,0.0051608
25722.869,0.0051593
25725.867,0.005163
25728.837,0.0051684
25731.872,0.0051732
25734.867,0.0051769
25737.868,0.0051781
25740.820,0.0051777
25743.867,0.0051781
25746.809,0.0051786
25749.872,0.0051782
25753.198,0.0051776
25756.195,0.005177
25759.188,0.0051774
25762.199,0.0051764
25765.193,0.0051749
25768.160,0.0051744
25771.197,0.0051739
25774.191,0.0051732
25777.189,0.0051726
25780.160,0.0051717
25783.195,0.0051701
25786.154,0.0051685
25789.157,0.0051688
25792.191,0.0051682
25795.190,0.0051661
25798.181,0.0051652
25801.162,0.0051636
25804.195,0.0051624
25807.187,0.0051614
25810.177,0.0051615
25813.169,0.0051605
25816.162,0.0051603
25819.167,0.0051592
25822.158,0.0051586
25825.189,0.0051608
25828.174,0.0051658
25831.158,0.0051694
25834.189,0.0051727
25837.167,0.005175
25840.191,0.0051759
25843.188,0.0051759
25846.164,0.0051765
25849.162,0.0051764
25852.167,0.0051758
25855.130,0.0051755
25858.187,0.0051749
25861.166,0.0051737
25864.191,0.0051716
25867.167,0.0051702
25870.168,0.005169
25873.192,0.0051701
25876.171,0.0051693
25879.167,0.0051691
25882.170,0.0051682
25885.173,0.0051675
25888.167,0.005167
25891.133,0.0051661
25894.165,0.0051656
25897.186,0.0051641
25900.171,0.0051668
25903.168,0.0051721
25906.166,0.0051756
25909.167,0.0051778
25912.171,0.0051802
25915.133,0.0051812
25918.133,0.0051815
25921.172,0.0051819
25924.171,0.0051814
25927.166,0.0051813
25930.155,0.005181
25933.133,0.0051799
25936.496,0.0051799
25939.507,0.0051794
25942.506,0.0051789
25945.508,0.005178
25948.479,0.0051774
25952.519,0.0051761
25955.478,0.0051742
25958.480,0.0051734
25961.503,0.0051726
25964.509,0.0051721
25967.471,0.0051709
25970.469,0.0051704
25973.469,0.0051691
25976.502,0.0051682
25979.469,0.0051674
25982.508,0.0051663
25985.477,0.0051656
25988.488,0.0051645
25991.589,0.0051632
25994.826,0.0051623
25997.814,0.0051614
26000.815,0.0051613
26003.819,0.0051601
26006.816,0.0051593
26009.815,0.0051587
26012.798,0.0051608
26015.818,0.0051678
26018.818,0.0051707
26021.822,0.0051751
26024.816,0.0051763
26027.781,0.0051763
26030.792,0.0051772
26033.813,0.0051792
26036.819,0.0051802
26039.815,0.0051813
26042.815,0.0051815
26045.814,0.0051809
26048.822,0.0051788
26052.145,0.0051755
26055.148,0.0051733
26058.144,0.0051729
26061.112,0.005174
26064.138,0.0051747
26067.146,0.0051747
26070.144,0.0051731
26073.140,0.0051701
26076.156,0.0051694
26079.107,0.0051697
26082.141,0.0051697
26085.146,0.0051684
26088.143,0.0051664
26091.141,0.0051641
26094.145,0.0051699
26097.152,0.0051739
26100.145,0.0051772
26103.145,0.0051807
26106.108,0.0051836
26109.140,0.0051853
26112.166,0.005185
26115.146,0.0051852
26118.140,0.0051856
26121.106,0.0051847
26124.150,0.0051843
26127.141,0.0051834
26130.129,0.0051821
26133.139,0.0051816
26136.140,0.0051807
26139.144,0.0051802
26142.145,0.0051788
26145.143,0.005178
26148.146,0.0051776
26151.144,0.0051764
26154.137,0.0051754
26157.143,0.0051747
26160.142,0.0051737
26163.146,0.0051733
26166.116,0.0051728
26169.140,0.0051723
26172.148,0.0051717
26175.114,0.0051711
26178.112,0.0051709
26181.138,0.0051696
26184.081,0.0051686
26187.140,0.0051667
26190.114,0.0051663
26193.114,0.0051656
26196.116,0.0051646
26199.113,0.0051642
26202.115,0.0051635
26205.119,0.0051626
26208.141,0.0051618
26211.145,0.0051607
26214.127,0.0051596
26217.117,0.0051582
26220.120,0.004546
26223.140,0.0036455
26226.111,0.0029682
26229.084,0.0024392
26232.113,0.002016
26235.140,0.0016733
26238.145,0.0013922
26241.140,0.0011609
26244.127,0.00096941
26247.157,0.00081015
26250.450,0.00066402
26253.450,0.00055507
26256.452,0.00046391
26259.488,0.00038772
26262.788,0.00031852
26265.791,0.00026637
26268.767,0.00022343
26271.789,0.00018735
26274.757,0.00015779
26277.791,0.000133
26280.811,0.00011251
26283.788,9.4843E-05
26286.788,8.1224E-05
26289.788,6.8954E-05
26293.109,5.828E-05
26296.109,5.0305E-05
26299.114,4.3679E-05
26302.111,3.8158E-05
26305.109,3.3495E-05
26308.116,2.9569E-05
26311.109,2.6502E-05
26314.114,2.368E-05
26317.109,2.1103E-05
26320.112,1.9263E-05
26323.109,1.7545E-05
26326.111,1.6441E-05
26329.113,1.5337E-05
26332.083,1.3987E-05
26335.136,1.3251E-05
26338.136,1.2392E-05
26341.141,1.1656E-05
26344.137,1.1288E-05
26347.207,1.1042E-05
26350.477,1.0429E-05
26353.731,9.6926E-06
26356.767,9.4472E-06
26359.763,9.3246E-06
26362.762,9.0792E-06
26365.764,8.711E-06
26368.760,8.4656E-06
26371.763,8.5884E-06
26374.767,8.2203E-06
26377.763,7.9749E-06
26380.789,7.9749E-06
26383.754,7.6068E-06
26386.763,7.3614E-06
26389.761,7.3614E-06
26392.771,7.2388E-06
26395.764,7.4842E-06
26398.761,6.9934E-06
26401.764,7.2388E-06
26404.773,7.3614E-06
26407.765,6.8706E-06
26410.763,6.748E-06
26413.769,6.748E-06
26416.730,6.748E-06
26419.763,6.6252E-06
26422.768,6.6252E-06
26425.762,6.1345E-06
26428.746,6.6252E-06
26431.764,6.5026E-06
26434.757,6.5026E-06
26437.762,6.2572E-06
26440.767,6.2572E-06
26443.737,6.2572E-06
26446.703,6.5026E-06
26449.738,6.0118E-06
26452.742,6.3799E-06
26455.742,6.0118E-06
26458.741,5.8891E-06
26461.737,6.0118E-06
26464.746,6.2572E-06
26467.738,5.8891E-06
26470.736,6.0118E-06
26474.088,6.1345E-06
26477.059,5.7664E-06
26480.052,5.6437E-06
26483.083,5.521E-06
26486.084,5.8891E-06
26489.083,5.7664E-06
26492.092,5.7664E-06
26495.086,5.521E-06
26498.083,5.6437E-06
26501.083,5.3983E-06
26504.090,5.6437E-06
26507.083,5.7664E-06
26510.050,5.2756E-06
26513.051,5.6437E-06
26516.062,5.7664E-06
26519.084,5.2756E-06
26522.087,5.7664E-06
26525.087,5.3983E-06
26528.060,5.6437E-06
26531.081,5.521E-06
26534.085,5.521E-06
26537.083,5.3983E-06
26540.063,5.6437E-06
26543.087,5.1529E-06
26546.057,5.6437E-06
26549.082,5.2756E-06
26552.056,5.6437E-06
26654.761,4.336E-06
26657.741,4.3112E-06
26660.746,4.336E-06
26663.784,4.2988E-06
26666.714,4.3112E-06
26669.686,4.3236E-06
26672.714,4.336E-06
26675.742,4.3112E-06
26678.719,4.3236E-06
26681.681,4.336E-06
26684.719,4.3112E-06
26687.719,4.3236E-06
26690.717,4.3484E-06
26693.718,4.2864E-06
26696.683,4.3236E-06
26699.720,4.336E-06
26702.714,4.2988E-06
26705.718,4.3484E-06
26708.724,4.3236E-06
26711.715,4.3112E-06
26714.712,4.2864E-06
26717.715,4.2988E-06
26720.714,4.2988E-06
26723.715,4.3112E-06
26726.717,4.274E-06
26729.681,4.336E-06
26732.688,4.274E-06
26735.709,4.3112E-06
26738.718,4.3112E-06
26741.714,4.274E-06
26744.712,4.2864E-06
26747.719,4.2864E-06
26750.714,4.336E-06
26753.716,4.274E-06
26756.724,4.3112E-06
26759.714,4.2988E-06
26762.681,4.2988E-06
26765.715,4.2988E-06
26768.714,4.3112E-06
26771.715,4.2864E-06
26775.030,4.2988E-06
26778.038,4.336E-06
26781.007,4.2864E-06
26784.035,4.3112E-06
26787.037,4.2864E-06
26790.063,4.274E-06
26793.037,4.2864E-06
26796.040,4.2988E-06
26799.038,4.3236E-06
26802.036,4.3236E-06
26805.035,4.2864E-06
26808.041,4.3112E-06
26811.062,4.336E-06
26814.003,4.274E-06
26817.028,4.3236E-06
26820.041,4.3112E-06
26823.035,4.3236E-06
26826.037,4.274E-06
26829.006,4.3112E-06
26832.031,4.2988E-06
26835.055,4.2864E-06
26838.028,4.336E-06
26841.028,4.336E-06
26844.032,4.2616E-06
26847.029,4.2988E-06
26850.031,4.2988E-06
26853.001,4.3112E-06
26856.028,4.336E-06
26859.030,4.336E-06
26862.026,4.2988E-06
26865.027,4.3236E-06
26868.005,4.2988E-06
26871.027,4.3112E-06
26874.027,4.274E-06
26877.034,4.336E-06
26880.004,4.3236E-06
26883.033,4.2864E-06
26886.035,4.2864E-06
26889.035,4.3236E-06
26892.039,4.3236E-06
26895.378,4.336E-06
26898.375,4.274E-06
26901.340,4.3112E-06
26904.377,4.3112E-06
26907.379,4.3112E-06
26910.373,4.2988E-06
26913.342,4.3112E-06
26916.322,4.2864E-06
26919.373,4.2988E-06
26922.351,4.2988E-06
26925.373,4.2988E-06
26928.374,4.336E-06
26931.372,4.3112E-06
26934.379,4.3112E-06
26937.374,4.2493E-06
26940.361,4.2864E-06
26943.348,4.2988E-06
26946.348,4.3112E-06
26949.675,4.2864E-06
26952.686,4.3112E-06
27054.681,4.2492E-06
27057.629,4.259E-06
27060.672,4.2578E-06
27063.668,4.2504E-06
27066.662,4.259E-06
27069.662,4.2639E-06
27072.659,4.2553E-06
27075.662,4.2553E-06
27078.663,4.2627E-06
27081.661,4.2602E-06
27084.667,4.2553E-06
27087.664,4.2602E-06
27090.667,4.2602E-06
27093.660,4.2541E-06
27096.634,4.2615E-06
27099.667,4.2627E-06
27102.664,4.2566E-06
27105.629,4.2578E-06
27108.672,4.2615E-06
27111.667,4.2627E-06
27115.012,4.259E-06
27117.983,4.2652E-06
27121.011,4.2615E-06
27123.988,4.2578E-06
27126.985,4.2615E-06
27129.936,4.2676E-06
27132.991,4.2615E-06
27136.011,4.2615E-06
27139.012,4.2676E-06
27141.984,4.2615E-06
27144.990,4.2615E-06
27147.952,4.2689E-06
27150.980,4.2676E-06
27153.973,4.2553E-06
27156.969,4.2664E-06
27159.956,4.2664E-06
27162.952,4.2615E-06
27165.992,4.259E-06
27168.951,4.2676E-06
27171.987,4.2615E-06
27175.326,4.2615E-06
27178.325,4.2689E-06
27181.296,4.2652E-06
27184.329,4.2602E-06
27187.321,4.2664E-06
27190.323,4.2713E-06
27193.321,4.259E-06
27196.333,4.2627E-06
27199.324,4.2676E-06
27202.329,4.2639E-06
27205.321,4.2578E-06
27208.321,4.2689E-06
27211.326,4.2701E-06
27214.289,4.2602E-06
27217.319,4.2652E-06
27220.329,4.2664E-06
27223.326,4.2627E-06
27226.325,4.8836E-06
27229.351,1.0879E-05
27232.329,2.0488E-05
27235.637,2.872E-05
27238.643,3.4625E-05
27241.637,3.9477E-05
27244.660,4.3477E-05
27247.975,4.7081E-05
27250.974,4.9718E-05
27253.974,5.189E-05
27256.980,5.3672E-05
27460.636,0.0051635
27463.610,0.0051624
27466.575,0.0051603
27469.609,0.0051578
27472.611,0.0051564
27475.613,0.005156
27478.588,0.0051556
27481.608,0.0051556
27484.590,0.0051617
27487.594,0.005165
27490.609,0.0051669
27493.584,0.0051691
27496.624,0.0051704
27499.609,0.0051706
27502.585,0.0051705
27505.609,0.0051696
27508.595,0.0051696
27511.615,0.00517
27514.583,0.0051693
27517.585,0.0051677
27520.611,0.0051674
27523.584,0.0051667
27526.588,0.0051659
27529.587,0.0051648
27532.590,0.0051641
27535.591,0.0051632
27538.589,0.005162
27541.584,0.0051609
27544.584,0.0051596
27547.592,0.0051585
27550.584,0.0051571
27553.585,0.0051602
27556.595,0.0051652
27559.586,0.0051691
27562.584,0.0051715
27565.586,0.0051734
27568.586,0.005175
27571.584,0.0051753
27574.589,0.0051751
27577.550,0.0051745
27580.587,0.0051744
27583.584,0.005174
27586.592,0.0051738
27589.585,0.0051728
27592.552,0.0051722
27595.582,0.0051713
27598.584,0.0051706
27601.586,0.0051691
27604.595,0.0051682
27607.587,0.0051673
27610.585,0.0051674
27613.553,0.0051659
27616.587,0.0051642
27619.585,0.0051624
27622.581,0.0051608
27625.576,0.0051604
27628.566,0.0051601
27631.987,0.0051594
27635.211,0.0051593
27638.248,0.0051586
27641.236,0.0051576
27644.248,0.0051604
27647.241,0.0051643
27650.248,0.0051674
27653.244,0.005169
27656.212,0.0051711
27659.240,0.0051717
27662.243,0.0051724
27665.210,0.0051731
27668.253,0.0051723
27671.244,0.0051727
27674.216,0.0051727
27677.244,0.0051715
27680.243,0.0051718
27683.243,0.0051701
27686.247,0.0051697
27689.212,0.0051693
27692.221,0.0051684
27695.246,0.0051669
27698.183,0.0051657
27701.242,0.0051646
27704.241,0.0051632
27707.217,0.0051635
27710.244,0.0051629
27713.211,0.0051615
27716.217,0.0051613
27719.265,0.0051604
27722.216,0.0051588
27725.250,0.0051591
27728.247,0.0051613
27731.240,0.0051661
27734.217,0.0051707
27737.216,0.0051734
27740.223,0.0051748
27743.218,0.005176
27746.218,0.0051767
27749.223,0.0051763
27752.186,0.0051759
27755.219,0.0051763
27758.216,0.0051753
27761.565,0.005174
27764.562,0.0051744
27767.556,0.0051733
27770.558,0.0051717
27773.558,0.0051705
27776.559,0.005169
27779.563,0.0051679
27782.526,0.0051673
27785.559,0.0051673
27788.563,0.0051661
27791.560,0.0051655
27794.558,0.0051652
27797.563,0.0051641
27800.563,0.0051634
27803.559,0.0051628
27806.561,0.0051617
27809.537,0.0051613
27812.529,0.0051599
27815.539,0.0051593
27818.557,0.0051581
27821.559,0.0051577
27824.558,0.0051641
27827.526,0.0051697
27830.557,0.0051729
27833.536,0.0051759
27836.536,0.0051776
27839.560,0.0051781
27842.539,0.0051781
27845.533,0.0051777
27848.563,0.0051772
27851.533,0.0051774
27854.498,0.0051766
27857.534,0.005176
27860.541,0.0051756
27863.520,0.0051748
27866.531,0.0051742
27869.532,0.0051734
27872.530,0.0051723
27875.500,0.0051715
27878.532,0.0051707
27881.556,0.0051699
27884.536,0.0051691
27887.531,0.0051678
27890.535,0.0051664
27893.534,0.0051661
27896.535,0.0051646
27899.537,0.0051643
27902.536,0.0051629
27905.532,0.0051615
27908.543,0.0051603
27911.539,0.005159
27914.531,0.0051583
27917.531,0.0051578
27920.531,0.0051565
27923.498,0.005156
27926.532,0.0051575
27929.533,0.0051636
27932.536,0.0051678
27935.532,0.0051712
27938.535,0.0051731
27941.560,0.0051743
27944.532,0.005176
27947.501,0.0051758
27950.536,0.0051761
27953.532,0.0051756
27956.510,0.005175
27959.539,0.0051743
27962.531,0.0051736
27965.532,0.0051727
27968.531,0.0051716
27971.499,0.0051712
27974.532,0.0051707
27977.532,0.0051706
27980.514,0.0051697
27983.538,0.0051682
27986.500,0.0051677
27989.506,0.0051668
27992.513,0.0051662
27995.534,0.0051656
27998.506,0.0051642
28001.512,0.0051632
28004.507,0.0051625
28007.506,0.0051612
28010.533,0.0051604
28013.442,0.0051594
28016.475,0.0051643
28019.475,0.0051704
28022.515,0.0051739
28025.503,0.0051765
28028.501,0.0051787
28031.505,0.0051803
28034.478,0.0051805
28037.479,0.0051805
28040.560,0.0051813
28043.847,0.0051809
28046.815,0.0051801
28049.843,0.0051797
28052.850,0.0051791
28055.845,0.0051781
28058.843,0.0051777
28062.194,0.0051774
28065.157,0.0051764
28068.170,0.0051751
28071.198,0.0051742
28074.190,0.0051736
28077.191,0.0051723
28080.133,0.0051717
28083.190,0.0051706
28086.162,0.0051697
28089.190,0.0051691
28092.169,0.0051677
28095.191,0.0051678
28098.162,0.0051667
28101.165,0.0051663
28104.169,0.0051651
28107.165,0.0051634
28110.164,0.0051628
28113.101,0.0051686
28116.169,0.0051731
28119.197,0.0051764
28122.506,0.0051793
28125.511,0.005181
28128.506,0.0051815
28131.505,0.0051819
28134.504,0.0051818
28137.506,0.0051813
28140.488,0.0051814
28143.470,0.0051805
28146.504,0.0051801
28149.505,0.0051794
28152.479,0.0051786
28155.507,0.0051776
28158.505,0.0051774
28161.531,0.0051763
28164.485,0.0051747
28167.506,0.005175
28170.482,0.0051749
28173.477,0.0051738
28176.479,0.0051724
28179.485,0.0051711
28182.817,0.0051697
28185.817,0.0051689
28188.829,0.0051683
28191.784,0.0051672
28194.820,0.0051668
28197.820,0.0051663
28200.818,0.005165
28203.820,0.0051636
28206.822,0.0051628
28209.821,0.0051615
28212.842,0.0051617
28216.168,0.0051615
28219.166,0.0051602
28222.139,0.0051587
28225.168,0.0051578
28228.169,0.0047096
28231.166,0.0037633
28234.164,0.0030584
28237.136,0.0025109
28240.216,0.0020735
28243.157,0.0017198
28246.224,0.0014309
28249.505,0.001169
28252.489,0.00097579
28255.479,0.0008158
28258.478,0.00068182
28261.479,0.00057029
28264.477,0.00047679
28267.479,0.00039864
28270.485,0.00033361
28273.479,0.00027925
28276.484,0.00023373
28279.484,0.00019619
28282.482,0.00016539
28285.479,0.00013926
28288.505,0.00011766
28291.485,9.9137E-05
28294.479,8.4414E-05
28297.478,7.2267E-05
28300.793,6.0979E-05
28303.816,5.239E-05
28306.821,4.5397E-05
28309.822,3.9262E-05
28312.850,3.4354E-05
28316.146,3.006E-05
28319.138,2.687E-05
28322.139,2.3925E-05
28325.165,2.1962E-05
28328.138,1.9508E-05
28331.136,1.779E-05
28334.142,1.6441E-05
28337.169,1.5214E-05
28340.171,1.3987E-05
28343.164,1.3742E-05
28346.214,1.276E-05
28349.475,1.1533E-05
28352.505,1.1288E-05
28355.507,1.0797E-05
28358.469,1.0183E-05
28361.843,1.0183E-05
28364.767,9.4472E-06
28367.816,9.2018E-06
28370.817,9.0792E-06
28373.791,8.5884E-06
28376.759,8.4656E-06
28379.800,8.343E-06
28382.792,8.0976E-06
28385.791,8.343E-06
28388.795,8.0976E-06
28391.766,7.9749E-06
28394.791,7.7295E-06
28397.790,7.7295E-06
28400.795,7.7295E-06
28403.791,7.116E-06
28406.791,7.2388E-06
28409.788,6.748E-06
28412.826,6.6252E-06
28416.138,6.9934E-06
28419.143,6.8706E-06
28422.441,6.6252E-06
28425.433,6.5026E-06
28428.431,6.5026E-06
28431.410,6.6252E-06
28434.462,6.5026E-06
28437.420,6.3799E-06
28440.782,6.2572E-06
28443.795,6.2572E-06
28446.825,6.0118E-06
28450.119,6.2572E-06
28453.111,6.2572E-06
28456.112,6.5026E-06
28459.143,6.1345E-06
28462.143,5.8891E-06
28465.112,6.0118E-06
28468.114,5.8891E-06
28471.079,6.0118E-06
28474.111,5.7664E-06
28477.118,6.1345E-06
28480.172,5.6437E-06
28483.113,6.0118E-06
28486.118,5.7664E-06
28489.117,5.8891E-06
28492.119,6.0118E-06
28495.114,6.0118E-06
28498.108,5.7664E-06
28501.112,5.6437E-06
28504.105,5.7664E-06
28507.112,5.6437E-06
28510.113,5.3983E-06
28513.086,6.0118E-06
28516.116,5.7664E-06
28519.112,5.521E-06
28522.112,5.6437E-06
28525.119,5.6437E-06
28528.115,5.6437E-06
28531.113,5.6437E-06
28534.111,5.7664E-06
28537.117,5.521E-06
28540.197,5.7664E-06
28543.454,5.3983E-06
28546.406,5.3983E-06
28549.452,5.2756E-06
28552.453,5.3983E-06
28555.453,5.521E-06
28558.454,5.2756E-06
28561.424,5.6437E-06
28663.438,4.2988E-06
28666.429,4.3484E-06
28669.426,4.3484E-06
28672.425,4.2988E-06
28675.428,4.3112E-06
28678.428,4.3484E-06
28681.427,4.336E-06
28684.432,4.3112E-06
28687.420,4.3608E-06
28690.423,4.336E-06
28693.425,4.336E-06
28696.434,4.3731E-06
28699.764,4.3484E-06
28702.765,4.3112E-06
28705.737,4.3236E-06
28708.744,4.3608E-06
28711.741,4.3236E-06
28714.725,4.2864E-06
28717.738,4.3112E-06
28720.753,4.336E-06
28724.090,4.2864E-06
28727.085,4.2988E-06
28730.086,4.3236E-06
28733.085,4.2988E-06
28736.085,4.3112E-06
28739.089,4.336E-06
28742.087,4.3112E-06
28745.085,4.2988E-06
28748.089,4.2864E-06
28751.089,4.3236E-06
28754.085,4.2864E-06
28757.090,4.3236E-06
28760.092,4.3112E-06
28763.090,4.336E-06
28766.086,4.3236E-06
28769.068,4.336E-06
28772.091,4.336E-06
28775.086,4.2864E-06
28778.086,4.2988E-06
28781.089,4.2988E-06
28784.367,4.3236E-06
28787.399,4.2988E-06
28790.401,4.3112E-06
28793.403,4.2988E-06
28796.401,4.3112E-06
28799.367,4.2988E-06
28802.400,4.3236E-06
28805.406,4.3236E-06
28808.401,4.2988E-06
28811.399,4.3112E-06
28814.369,4.2864E-06
28817.384,4.3236E-06
28820.381,4.3112E-06
28823.368,4.336E-06
28826.417,4.3112E-06
28829.414,4.3236E-06
28832.401,4.3112E-06
28835.399,4.336E-06
28838.403,4.3236E-06
28841.403,4.336E-06
28844.719,4.2864E-06
28847.721,4.2988E-06
28850.740,4.3112E-06
28853.713,4.3112E-06
28856.739,4.3236E-06
28859.739,4.2988E-06
28862.713,4.2864E-06
28865.717,4.2988E-06
28868.722,4.3112E-06
28871.712,4.3112E-06
28874.738,4.2988E-06
28877.685,4.274E-06
28880.741,4.2864E-06
28883.712,4.3112E-06
28886.738,4.2864E-06
28889.713,4.336E-06
28892.717,4.3236E-06
28895.717,4.3112E-06
28898.716,4.2988E-06
28901.713,4.3236E-06
28904.736,4.2988E-06
28907.719,4.2988E-06
28910.713,4.3112E-06
28913.710,4.3112E-06
28916.721,4.2864E-06
28919.714,4.336E-06
28922.712,4.3112E-06
28925.712,4.2988E-06
28928.712,4.3236E-06
28931.712,4.3112E-06
28934.718,4.3112E-06
28937.713,4.274E-06
28940.715,4.3112E-06
28943.717,4.3112E-06
28946.683,4.274E-06
28949.708,4.3236E-06
28952.708,4.3112E-06
28955.713,4.274E-06
28958.709,4.2864E-06
28961.707,4.2616E-06
29063.384,4.2492E-06
29066.675,4.2504E-06
29069.703,4.2566E-06
29072.682,4.2504E-06
29075.692,4.2467E-06
29078.684,4.2566E-06
29081.663,4.2566E-06
29084.668,4.2479E-06
29087.656,4.2553E-06
29090.691,4.259E-06
29093.701,4.2529E-06
29096.726,4.2566E-06
29100.033,4.2602E-06
29103.032,4.2578E-06
29106.032,4.2553E-06
29109.028,4.2676E-06
29112.036,4.2639E-06
29114.995,4.2553E-06
29118.028,4.2578E-06
29121.028,4.2627E-06
29124.034,4.2541E-06
29126.995,4.2566E-06
29130.011,4.2652E-06
29133.030,4.2578E-06
29136.028,4.2541E-06
29139.028,4.2615E-06
29142.035,4.2627E-06
29145.002,4.2541E-06
29148.011,4.259E-06
29151.004,4.2664E-06
29154.029,4.2541E-06
29157.007,4.2578E-06
29160.007,4.2627E-06
29163.029,4.259E-06
29166.002,4.2553E-06
29169.033,4.2615E-06
29172.007,4.2652E-06
29175.032,4.2553E-06
29177.970,4.2615E-06
29181.002,4.2627E-06
29184.029,4.2541E-06
29187.028,4.2578E-06
29190.002,4.2627E-06
29192.969,4.2602E-06
29195.949,4.2529E-06
29199.031,4.2627E-06
29202.002,4.2627E-06
29205.008,4.2578E-06
29207.968,4.2578E-06
29211.002,4.2615E-06
29214.002,4.2553E-06
29217.004,4.2541E-06
29220.007,4.2615E-06
29223.001,4.2566E-06
29226.006,4.2504E-06
29229.002,4.2627E-06
29232.003,4.2615E-06
29235.003,5.0549E-06
29238.033,1.178E-05
29241.002,2.1166E-05
29244.011,2.8528E-05
29247.002,3.4471E-05
29250.002,3.9345E-05
29252.971,4.3374E-05
29255.970,4.6669E-05
29259.003,4.9376E-05
29261.980,5.161E-05
29264.974,5.3445E-05
29469.313,0.0051667
29472.292,0.0051652
29475.291,0.0051635
29478.300,0.0051621
29481.293,0.0051648
29484.300,0.00517
29487.291,0.0051732
29490.291,0.0051751
29493.292,0.0051767
29496.307,0.0051774
29499.293,0.0051774
29502.259,0.0051777
29505.298,0.0051772
29508.298,0.0051761
29511.324,0.0051753
29514.296,0.0051755
29517.297,0.005175
29520.293,0.0051728
29523.260,0.0051718
29526.300,0.0051711
29529.304,0.0051702
29532.273,0.0051689
29535.292,0.0051679
29538.259,0.0051672
29541.295,0.0051658
29544.292,0.005165
29547.293,0.0051637
29550.292,0.0051636
29553.298,0.0051621
29556.298,0.0051631
29559.274,0.0051691
29562.268,0.0051736
29565.297,0.0051754
29568.296,0.0051782
29571.293,0.0051793
29574.267,0.0051804
29577.293,0.0051803
29580.272,0.0051802
29583.268,0.0051797
29586.261,0.0051788
29589.264,0.0051786
29592.236,0.0051782
29595.268,0.0051774
29598.265,0.0051761
29601.226,0.005175
29604.274,0.0051739
29607.272,0.0051727
29610.268,0.0051722
29613.329,0.0051715
29616.613,0.0051702
29619.611,0.0051691
29622.608,0.0051686
29625.574,0.0051678
29628.614,0.0051664
29631.608,0.0051658
29634.609,0.0051641
29637.606,0.0051631
29640.607,0.0051621
29643.608,0.0051614
29646.581,0.0051601
29649.608,0.0051658
29652.593,0.00517
29655.613,0.0051727
29658.608,0.0051744
29661.608,0.0051759
29664.612,0.005178
29667.611,0.005178
29670.607,0.0051782
29673.607,0.0051787
29676.586,0.0051787
29679.582,0.0051777
29682.586,0.0051767
29685.585,0.0051763
29688.582,0.0051754
29691.607,0.005174
29694.582,0.0051733
29697.584,0.0051718
29700.593,0.005171
29703.582,0.0051696
29706.582,0.0051693
29709.608,0.0051688
29712.602,0.0051675
29716.254,0.0051669
29719.271,0.0051663
29722.242,0.0051655
29725.236,0.0051646
29728.271,0.005163
29731.271,0.0051615
29734.245,0.0051609
29737.267,0.0051601
29740.248,0.0051591
29743.270,0.0051586
29746.260,0.0051577
29749.264,0.0051565
29752.240,0.005155
29755.268,0.005162
29758.240,0.0051669
29761.241,0.0051702
29764.250,0.0051724
29767.271,0.0051739
29770.582,0.0051753
29773.551,0.0051755
29776.582,0.0051761
29779.627,0.0051761
29782.587,0.0051754
29785.585,0.0051751
29788.553,0.0051745
29791.592,0.0051738
29794.587,0.0051726
29797.581,0.0051723
29800.583,0.0051711
29803.557,0.0051704
29806.582,0.0051696
29809.585,0.0051684
29812.584,0.0051674
29815.581,0.0051664
29818.581,0.0051652
29821.586,0.0051637
29824.583,0.0051625
29827.584,0.0051608
29830.585,0.005159
29833.576,0.005158
29836.533,0.0051561
29839.558,0.0051548
29842.587,0.0051607
29845.581,0.0051646
29848.582,0.0051668
29851.522,0.0051683
29854.582,0.0051691
29857.581,0.0051696
29860.560,0.0051702
29863.579,0.0051691
29866.572,0.0051684
29869.553,0.0051684
29872.583,0.0051688
29875.526,0.0051682
29878.586,0.0051663
29881.557,0.0051659
29884.562,0.0051653
29887.558,0.0051639
29890.587,0.0051632
29893.558,0.0051624
29896.615,0.0051613
29899.579,0.0051605
29902.556,0.0051597
29905.552,0.0051592
29908.560,0.0051585
29911.555,0.0051576
29914.555,0.0051567
29917.556,0.0051559
29920.557,0.005155
29923.557,0.0051545
29926.557,0.0051537
29929.494,0.0051527
29932.904,0.0051517
29935.900,0.005151
29938.893,0.0051499
29941.893,0.0051493
29944.891,0.0051479
29947.862,0.0051473
29952.209,0.0051457
29955.212,0.0051495
29958.214,0.0051559
29961.203,0.0051599
29964.561,0.0051625
29967.553,0.0051646
29970.556,0.0051657
29973.558,0.0051656
29976.561,0.0051657
29979.549,0.0051659
29982.556,0.0051658
29985.558,0.0051657
29988.561,0.0051652
29991.555,0.0051639
29994.556,0.0051629
29997.557,0.0051626
